Fp1,Fp2,C3,C4,P7,P8,O1,O2,time_board,time_marker,marker
-19459.36166755696,-187500.02235174447,56.3487477718291,-187500.02235174447,-187500.02235174447,-187500.02235174447,-187500.02235174447,-187500.02235174447,1730329312.624089,1730329312.621244,5.0
-19417.832126359,-187500.02235174447,115.62557406730345,-187500.02235174447,-187500.02235174447,-187500.02235174447,-187500.02235174447,-187500.02235174447,1730329312.6284697,1730329312.621244,5.0
-19396.843838315468,-187500.02235174447,95.55370754643768,-187500.02235174447,-187500.02235174447,-187500.02235174447,-187500.02235174447,-187500.02235174447,1730329312.6320996,1730329312.621244,5.0
-19444.207184816263,-187500.02235174447,34.824017861368404,-187500.02235174447,-187500.02235174447,-187500.02235174447,-187500.02235174447,-187500.02235174447,1730329312.6372132,1730329312.621244,5.0
-19470.67165025135,-187500.02235174447,55.23116054906375,-187500.02235174447,-187500.02235174447,-187500.02235174447,-187500.02235174447,-187500.02235174447,1730329312.6411045,1730329312.621244,5.0
-19433.254830033165,-187500.02235174447,112.6751437992029,-187500.02235174447,-187500.02235174447,-187500.02235174447,-187500.02235174447,-187500.02235174447,1730329312.6452608,1730329312.621244,5.0
-19402.789402340582,-187500.02235174447,102.5498035609488,-187500.02235174447,-187500.02235174447,-187500.02235174447,-187500.02235174447,-187500.02235174447,1730329312.6481264,1730329312.621244,5.0
-19426.8845828634,-187500.02235174447,44.27880576596329,-187500.02235174447,-187500.02235174447,-187500.02235174447,-187500.02235174447,-187500.02235174447,1730329312.6521213,1730329312.621244,5.0
-19460.680420479825,-187500.02235174447,46.223407533575006,-187500.02235174447,-187500.02235174447,-187500.02235174447,-187500.02235174447,-187500.02235174447,1730329312.656314,1730329312.621244,5.0
-19449.638658718904,-187500.02235174447,97.52066105850471,-187500.02235174447,-187500.02235174447,-187500.02235174447,-187500.02235174447,-187500.02235174447,1730329312.6612413,1730329312.621244,5.0
-19410.50075417766,-187500.02235174447,108.83064375289008,-187500.02235174447,-187500.02235174447,-187500.02235174447,-187500.02235174447,-187500.02235174447,1730329312.665204,1730329312.621244,5.0
-19425.834050874004,-187500.02235174447,55.141753571242525,-187500.02235174447,-187500.02235174447,-187500.02235174447,-187500.02235174447,-187500.02235174447,1730329312.6703637,1730329312.621244,5.0
-19475.320813098053,-187500.02235174447,28.118494524776285,-187500.02235174447,-187500.02235174447,-187500.02235174447,-187500.02235174447,-187500.02235174447,1730329312.6731708,1730329312.621244,5.0
-19468.72704848373,-187500.02235174447,80.89096318375626,-187500.02235174447,-187500.02235174447,-187500.02235174447,-187500.02235174447,-187500.02235174447,1730329312.677384,1730329312.621244,5.0
-19415.95457982476,-187500.02235174447,122.33109740389555,-187500.02235174447,-187500.02235174447,-187500.02235174447,-187500.02235174447,-187500.02235174447,1730329312.6813314,1730329312.621244,5.0
-19425.342312495985,-187500.02235174447,70.54210550094909,-187500.02235174447,-187500.02235174447,-187500.02235174447,-187500.02235174447,-187500.02235174447,1730329312.685169,1730329312.621244,5.0
-19473.82324621955,-187500.02235174447,28.85610209180141,-187500.02235174447,-187500.02235174447,-187500.02235174447,-187500.02235174447,-187500.02235174447,1730329312.6883025,1730329312.621244,5.0
-19479.79116198912,-187500.02235174447,71.68204446816975,-187500.02235174447,-187500.02235174447,-187500.02235174447,-187500.02235174447,-187500.02235174447,1730329312.692418,1730329312.621244,5.0
-19434.104196322467,-187500.02235174447,114.70915254463584,-187500.02235174447,-187500.02235174447,-187500.02235174447,-187500.02235174447,-187500.02235174447,1730329312.6964295,1730329312.621244,5.0
-19422.74951013917,-187500.02235174447,77.40409104872836,-187500.02235174447,-187500.02235174447,-187500.02235174447,-187500.02235174447,-187500.02235174447,1730329312.700422,1730329312.621244,5.0
-19467.00596416068,-187500.02235174447,22.1505787552093,-187500.02235174447,-187500.02235174447,-187500.02235174447,-187500.02235174447,-187500.02235174447,1730329312.7053924,1730329312.621244,5.0
-19483.76977250216,-187500.02235174447,53.443020992639184,-187500.02235174447,-187500.02235174447,-187500.02235174447,-187500.02235174447,-187500.02235174447,1730329312.709424,1730329312.621244,5.0
-19442.70961793776,-187500.02235174447,121.68289681469165,-187500.02235174447,-187500.02235174447,-187500.02235174447,-187500.02235174447,-187500.02235174447,1730329312.7134352,1730329312.621244,5.0
-19421.073129305023,-187500.02235174447,100.3369808598734,-187500.02235174447,-187500.02235174447,-187500.02235174447,-187500.02235174447,-187500.02235174447,1730329312.7162857,1730329312.621244,5.0
-19457.43941753381,-187500.02235174447,37.30506149590749,-187500.02235174447,-187500.02235174447,-187500.02235174447,-187500.02235174447,-187500.02235174447,1730329312.7203465,1730329312.621244,5.0
-19487.502513826195,-187500.02235174447,52.772468658979975,-187500.02235174447,-187500.02235174447,-187500.02235174447,-187500.02235174447,-187500.02235174447,1730329312.7242603,1730329312.621244,5.0
-19450.2421558192,-187500.02235174447,109.1659199197197,-187500.02235174447,-187500.02235174447,-187500.02235174447,-187500.02235174447,-187500.02235174447,1730329312.7283175,1730329312.621244,5.0
-19408.22087624322,-187500.02235174447,108.5624228194264,-187500.02235174447,-187500.02235174447,-187500.02235174447,-187500.02235174447,-187500.02235174447,1730329312.7327657,1730329312.621244,5.0
-19443.156652826867,-187500.02235174447,48.36917500128448,-187500.02235174447,-187500.02235174447,-187500.02235174447,-187500.02235174447,-187500.02235174447,1730329312.7373636,1730329312.621244,5.0
-19478.13713289942,-187500.02235174447,48.54798895692694,-187500.02235174447,-187500.02235174447,-187500.02235174447,-187500.02235174447,-187500.02235174447,1730329312.7413003,1730329312.621244,5.0
-19450.309211052565,-187500.02235174447,108.47301584160518,-187500.02235174447,-187500.02235174447,-187500.02235174447,-187500.02235174447,-187500.02235174447,1730329312.7444634,1730329312.621244,5.0
-19414.859344346445,-187500.02235174447,112.89866124375595,-187500.02235174447,-187500.02235174447,-187500.02235174447,-187500.02235174447,-187500.02235174447,1730329312.7482672,1730329312.621244,5.0
-19439.51331848065,-187500.02235174447,57.466334994594455,-187500.02235174447,-187500.02235174447,-187500.02235174447,-187500.02235174447,-187500.02235174447,1730329312.7523618,1730329312.621244,5.0
-19478.606519532983,-187500.02235174447,46.625738933770535,-187500.02235174447,-187500.02235174447,-187500.02235174447,-187500.02235174447,-187500.02235174447,1730329312.7563846,1730329312.621244,5.0
-19457.03708613361,-187500.02235174447,105.96962046261078,-187500.02235174447,-187500.02235174447,-187500.02235174447,-187500.02235174447,-187500.02235174447,1730329312.7604694,1730329312.621244,5.0
-19404.55519015255,-187500.02235174447,128.4331236401944,-187500.02235174447,-187500.02235174447,-187500.02235174447,-187500.02235174447,-187500.02235174447,1730329312.765351,1730329312.621244,5.0
-19414.926399579814,-187500.02235174447,70.31858805639602,-187500.02235174447,-187500.02235174447,-187500.02235174447,-187500.02235174447,-187500.02235174447,1730329312.7684865,1730329312.621244,5.0
-19459.071094879044,-187500.02235174447,46.625738933770535,-187500.02235174447,-187500.02235174447,-187500.02235174447,-187500.02235174447,-187500.02235174447,1730329312.772483,1730329312.621244,5.0
-19457.729990211727,-187500.02235174447,95.55370754643768,-187500.02235174447,-187500.02235174447,-187500.02235174447,-187500.02235174447,-187500.02235174447,1730329312.7764995,1730329312.621244,5.0
-19419.530858937607,-187500.02235174447,125.41563813872791,-187500.02235174447,-187500.02235174447,-187500.02235174447,-187500.02235174447,-187500.02235174447,1730329312.780538,1730329312.621244,5.0
-19421.520164194128,-187500.02235174447,84.95898067462214,-187500.02235174447,-187500.02235174447,-187500.02235174447,-187500.02235174447,-187500.02235174447,1730329312.7844915,1730329312.621244,5.0
-19454.22076633224,-187500.02235174447,50.11261106879844,-187500.02235174447,-187500.02235174447,-187500.02235174447,-187500.02235174447,-187500.02235174447,1730329312.7884932,1730329312.621244,5.0
-19459.2946123236,-187500.02235174447,88.08822489836514,-187500.02235174447,-187500.02235174447,-187500.02235174447,-187500.02235174447,-187500.02235174447,1730329312.7935224,1730329312.621244,5.0
-19426.214030529743,-187500.02235174447,122.1746351927084,-187500.02235174447,-187500.02235174447,-187500.02235174447,-187500.02235174447,-187500.02235174447,1730329312.7964046,1730329312.621244,5.0
-19418.99441707068,-187500.02235174447,85.13779463026461,-187500.02235174447,-187500.02235174447,-187500.02235174447,-187500.02235174447,-187500.02235174447,1730329312.8005052,1730329312.621244,5.0
-19461.507435024672,-187500.02235174447,36.90273009571196,-187500.02235174447,-187500.02235174447,-187500.02235174447,-187500.02235174447,-187500.02235174447,1730329312.8045156,1730329312.621244,5.0
-19477.10895265448,-187500.02235174447,67.97165488858877,-187500.02235174447,-187500.02235174447,-187500.02235174447,-187500.02235174447,-187500.02235174447,1730329312.8085043,1730329312.621244,5.0
-19440.630905703416,-187500.02235174447,114.73150428909116,-187500.02235174447,-187500.02235174447,-187500.02235174447,-187500.02235174447,-187500.02235174447,1730329312.812552,1730329312.621244,5.0
-19431.980780599213,-187500.02235174447,85.71893998610258,-187500.02235174447,-187500.02235174447,-187500.02235174447,-187500.02235174447,-187500.02235174447,1730329312.8165948,1730329312.621244,5.0
-19457.75234195618,-187500.02235174447,36.56745392888235,-187500.02235174447,-187500.02235174447,-187500.02235174447,-187500.02235174447,-187500.02235174447,1730329312.8215835,1730329312.621244,5.0
-19470.403429317885,-187500.02235174447,53.59948320382634,-187500.02235174447,-187500.02235174447,-187500.02235174447,-187500.02235174447,-187500.02235174447,1730329312.824612,1730329312.621244,5.0
-19442.307286537565,-187500.02235174447,105.83550999587894,-187500.02235174447,-187500.02235174447,-187500.02235174447,-187500.02235174447,-187500.02235174447,1730329312.8286011,1730329312.621244,5.0
-19409.11494602144,-187500.02235174447,104.49440532856052,-187500.02235174447,-187500.02235174447,-187500.02235174447,-187500.02235174447,-187500.02235174447,1730329312.8324869,1730329312.621244,5.0
-19439.84859464748,-187500.02235174447,40.34489874182925,-187500.02235174447,-187500.02235174447,-187500.02235174447,-187500.02235174447,-187500.02235174447,1730329312.8364708,1730329312.621244,5.0
-19475.700792753792,-187500.02235174447,42.55772144290465,-187500.02235174447,-187500.02235174447,-187500.02235174447,-187500.02235174447,-187500.02235174447,1730329312.8404014,1730329312.621244,5.0
-19460.769827457647,-187500.02235174447,93.51969880100476,-187500.02235174447,-187500.02235174447,-187500.02235174447,-187500.02235174447,-187500.02235174447,1730329312.8446422,1730329312.621244,5.0
-19425.051739818067,-187500.02235174447,102.99683845005497,-187500.02235174447,-187500.02235174447,-187500.02235174447,-187500.02235174447,-187500.02235174447,1730329312.8495083,1730329312.621244,5.0
-19435.780577156613,-187500.02235174447,47.07277382287668,-187500.02235174447,-187500.02235174447,-187500.02235174447,-187500.02235174447,-187500.02235174447,1730329312.852502,1730329312.621244,5.0
-19480.81934223406,-187500.02235174447,26.55387241290479,-187500.02235174447,-187500.02235174447,-187500.02235174447,-187500.02235174447,-187500.02235174447,1730329312.855631,1730329312.621244,5.0
-19468.07884789453,-187500.02235174447,81.00272190603279,-187500.02235174447,-187500.02235174447,-187500.02235174447,-187500.02235174447,-187500.02235174447,1730329312.8610935,1730329312.621244,5.0
-19422.34717873897,-187500.02235174447,109.12121643080908,-187500.02235174447,-187500.02235174447,-187500.02235174447,-187500.02235174447,-187500.02235174447,1730329312.8646672,1730329312.621244,5.0
-19424.26942876213,-187500.02235174447,70.54210550094909,-187500.02235174447,-187500.02235174447,-187500.02235174447,-187500.02235174447,-187500.02235174447,1730329312.8685954,1730329312.621244,5.0
-19463.31792632555,-187500.02235174447,38.89203535223429,-187500.02235174447,-187500.02235174447,-187500.02235174447,-187500.02235174447,-187500.02235174447,1730329312.8725698,1730329312.621244,5.0
-19474.67261250885,-187500.02235174447,77.22527709308591,-187500.02235174447,-187500.02235174447,-187500.02235174447,-187500.02235174447,-187500.02235174447,1730329312.8767197,1730329312.621244,5.0
-19436.94286786829,-187500.02235174447,104.29323962846276,-187500.02235174447,-187500.02235174447,-187500.02235174447,-187500.02235174447,-187500.02235174447,1730329312.8796265,1730329312.621244,5.0
-19417.161574025344,-187500.02235174447,78.52167827149371,-187500.02235174447,-187500.02235174447,-187500.02235174447,-187500.02235174447,-187500.02235174447,1730329312.883674,1730329312.621244,5.0
-19458.579356501028,-187500.02235174447,41.4624859645946,-187500.02235174447,-187500.02235174447,-187500.02235174447,-187500.02235174447,-187500.02235174447,1730329312.8886287,1730329312.621244,5.0
-19471.7445339852,-187500.02235174447,77.1805736041753,-187500.02235174447,-187500.02235174447,-187500.02235174447,-187500.02235174447,-187500.02235174447,1730329312.8925664,1730329312.621244,5.0
-19424.89527760688,-187500.02235174447,126.15324570575306,-187500.02235174447,-187500.02235174447,-187500.02235174447,-187500.02235174447,-187500.02235174447,1730329312.896741,1730329312.621244,5.0
-19401.31418720653,-187500.02235174447,86.30008534194057,-187500.02235174447,-187500.02235174447,-187500.02235174447,-187500.02235174447,-187500.02235174447,1730329312.9007163,1730329312.621244,5.0
-19452.56673724255,-187500.02235174447,20.18362524314228,-187500.02235174447,-187500.02235174447,-187500.02235174447,-187500.02235174447,-187500.02235174447,1730329312.903755,1730329312.621244,5.0
-19498.74544128721,-187500.02235174447,42.98240458755548,-187500.02235174447,-187500.02235174447,-187500.02235174447,-187500.02235174447,-187500.02235174447,1730329312.907542,1730329312.621244,5.0
-19455.22659483273,-187500.02235174447,111.15522517624204,-187500.02235174447,-187500.02235174447,-187500.02235174447,-187500.02235174447,-187500.02235174447,1730329312.911605,1730329312.621244,5.0
-19405.918646564325,-187500.02235174447,94.81609997941256,-187500.02235174447,-187500.02235174447,-187500.02235174447,-187500.02235174447,-187500.02235174447,1730329312.9166126,1730329312.621244,5.0
-19451.717370953247,-187500.02235174447,19.13309325374285,-187500.02235174447,-187500.02235174447,-187500.02235174447,-187500.02235174447,-187500.02235174447,1730329312.920731,1730329312.621244,5.0
-19527.13215674545,-187500.02235174447,-14.68509610713674,-187500.02235174447,-187500.02235174447,-187500.02235174447,-187500.02235174447,-187500.02235174447,1730329312.924626,1730329312.621244,5.0
-19520.761909575693,-187500.02235174447,27.447942191117072,-187500.02235174447,-187500.02235174447,-187500.02235174447,-187500.02235174447,-187500.02235174447,1730329312.928763,1730329312.621244,5.0
-19492.82222900656,-187500.02235174447,68.26222756650778,-187500.02235174447,-187500.02235174447,-187500.02235174447,-187500.02235174447,-187500.02235174447,1730329312.9315836,1730329312.621244,5.0
-19459.76399895716,-187500.02235174447,70.02801537847702,-187500.02235174447,-187500.02235174447,-187500.02235174447,-187500.02235174447,-187500.02235174447,1730329312.935815,1730329312.621244,5.0
-19489.58122606053,-187500.02235174447,60.03678560695477,-187500.02235174447,-187500.02235174447,-187500.02235174447,-187500.02235174447,-187500.02235174447,1730329312.9398503,1730329312.621244,5.0
-19465.173121115346,-187500.02235174447,120.05121946945424,-187500.02235174447,-187500.02235174447,-187500.02235174447,-187500.02235174447,-187500.02235174447,1730329312.944787,1730329312.621244,5.0
-19383.58925385347,-187500.02235174447,151.00838554005452,-187500.02235174447,-187500.02235174447,-187500.02235174447,-187500.02235174447,-187500.02235174447,1730329312.9486346,1730329312.621244,5.0
-19363.003297210133,-187500.02235174447,106.95309721864427,-187500.02235174447,-187500.02235174447,-187500.02235174447,-187500.02235174447,-187500.02235174447,1730329312.9527204,1730329312.621244,5.0
-19433.344237010984,-187500.02235174447,73.71605321360269,-187500.02235174447,-187500.02235174447,-187500.02235174447,-187500.02235174447,-187500.02235174447,1730329312.9566195,1730329312.621244,5.0
-19443.31311503805,-187500.02235174447,110.73054203159118,-187500.02235174447,-187500.02235174447,-187500.02235174447,-187500.02235174447,-187500.02235174447,1730329312.9599545,1730329312.621244,5.0
-19412.26654198963,-187500.02235174447,127.78492305099049,-187500.02235174447,-187500.02235174447,-187500.02235174447,-187500.02235174447,-187500.02235174447,1730329312.9639788,1730329312.621244,5.0
-19419.620265915422,-187500.02235174447,71.10089911233176,-187500.02235174447,-187500.02235174447,-187500.02235174447,-187500.02235174447,-187500.02235174447,1730329312.9680078,1730329312.621244,5.0
-19468.123551383444,-187500.02235174447,37.37211672927341,-187500.02235174447,-187500.02235174447,-187500.02235174447,-187500.02235174447,-187500.02235174447,1730329312.9718893,1730329312.621244,5.0
-19480.90874921188,-187500.02235174447,83.2378963515635,-187500.02235174447,-187500.02235174447,-187500.02235174447,-187500.02235174447,-187500.02235174447,1730329312.9768317,1730329312.621244,5.0
-19430.37145499843,-187500.02235174447,107.84716699685656,-187500.02235174447,-187500.02235174447,-187500.02235174447,-187500.02235174447,-187500.02235174447,1730329312.980801,1730329312.621244,5.0
-19445.011847616657,-187500.02235174447,51.96780585858892,-187500.02235174447,-187500.02235174447,-187500.02235174447,-187500.02235174447,-187500.02235174447,1730329312.9837782,1730329312.621244,5.0
-19509.87661002596,-187500.02235174447,11.131168738742916,-187500.02235174447,-187500.02235174447,-187500.02235174447,-187500.02235174447,-187500.02235174447,1730329312.9878728,1730329312.621244,5.0
-19514.83869729504,-187500.02235174447,26.486817179538868,-187500.02235174447,-187500.02235174447,-187500.02235174447,-187500.02235174447,-187500.02235174447,1730329312.9917488,1730329312.621244,5.0
-19481.646356778903,-187500.02235174447,43.02710807646609,-187500.02235174447,-187500.02235174447,-187500.02235174447,-187500.02235174447,-187500.02235174447,1730329312.995804,1730329312.621244,5.0
-19459.51812976815,-187500.02235174447,36.90273009571196,-187500.02235174447,-187500.02235174447,-187500.02235174447,-187500.02235174447,-187500.02235174447,1730329312.9997048,1730329312.621244,5.0
-19409.29375997708,-187500.02235174447,-35.740439384035994,-187500.02235174447,-187500.02235174447,-187500.02235174447,-187500.02235174447,-187500.02235174447,1730329313.0048916,1730329312.621244,5.0
-19511.105955971,-187500.02235174447,-77.13587011526468,-187500.02235174447,-187500.02235174447,-187500.02235174447,-187500.02235174447,-187500.02235174447,1730329313.00892,1730329312.621244,5.0
-19572.39443926745,-187500.02235174447,76.9347044151669,-187500.02235174447,-187500.02235174447,-187500.02235174447,-187500.02235174447,-187500.02235174447,1730329313.0118992,1730329312.621244,5.0
-19471.56572002956,-187500.02235174447,92.17859413368632,-187500.02235174447,-187500.02235174447,-187500.02235174447,-187500.02235174447,-187500.02235174447,1730329313.0158014,1730329312.621244,5.0
-19382.4269631418,-187500.02235174447,62.0037391190218,-187500.02235174447,-187500.02235174447,-187500.02235174447,-187500.02235174447,-187500.02235174447,1730329313.01981,1730329312.621244,5.0
-19366.244300156155,-187500.02235174447,59.92502688467823,-187500.02235174447,-187500.02235174447,-187500.02235174447,-187500.02235174447,-187500.02235174447,1730329313.0237129,1730329312.621244,5.0
-19431.31022826556,-187500.02235174447,14.327468195851829,-187500.02235174447,-187500.02235174447,-187500.02235174447,-187500.02235174447,-187500.02235174447,1730329313.027842,1730329312.621244,5.0
-19382.53872186407,-187500.02235174447,90.70337899963606,-187500.02235174447,-187500.02235174447,-187500.02235174447,-187500.02235174447,-187500.02235174447,1730329313.0318112,1730329312.621244,5.0
-19488.597749304503,-187500.02235174447,73.00079739103286,-187500.02235174447,-187500.02235174447,-187500.02235174447,-187500.02235174447,-187500.02235174447,1730329313.0369532,1730329312.621244,5.0
-19463.9437751703,-187500.02235174447,63.50130599752737,-187500.02235174447,-187500.02235174447,-187500.02235174447,-187500.02235174447,-187500.02235174447,1730329313.039784,1730329312.621244,5.0
-19444.65421970537,-187500.02235174447,5.498529136005537,-187500.02235174447,-187500.02235174447,-187500.02235174447,-187500.02235174447,-187500.02235174447,1730329313.0439546,1730329312.621244,5.0
-19433.74656841118,-187500.02235174447,-70.5644572454044,-187500.02235174447,-187500.02235174447,-187500.02235174447,-187500.02235174447,-187500.02235174447,1730329313.0479813,1730329312.621244,5.0
-19470.246967106697,-187500.02235174447,-0.5140901224720624,-187500.02235174447,-187500.02235174447,-187500.02235174447,-187500.02235174447,-187500.02235174447,1730329313.0520806,1730329312.621244,5.0
-19392.619358613418,-187500.02235174447,78.99106490505515,-187500.02235174447,-187500.02235174447,-187500.02235174447,-187500.02235174447,-187500.02235174447,1730329313.05581,1730329312.621244,5.0
-19412.847687345467,-187500.02235174447,-16.517939152471918,-187500.02235174447,-187500.02235174447,-187500.02235174447,-187500.02235174447,-187500.02235174447,1730329313.0598676,1730329312.621244,5.0
-19615.801526999658,-187500.02235174447,86.18832661966404,-187500.02235174447,-187500.02235174447,-187500.02235174447,-187500.02235174447,-187500.02235174447,1730329313.064818,1730329312.621244,5.0
-19524.606409622003,-187500.02235174447,87.39532082025062,-187500.02235174447,-187500.02235174447,-187500.02235174447,-187500.02235174447,-187500.02235174447,1730329313.0679555,1730329312.621244,5.0
-19429.3879782424,-187500.02235174447,37.79679987392424,-187500.02235174447,-187500.02235174447,-187500.02235174447,-187500.02235174447,-187500.02235174447,1730329313.0718527,1730329312.621244,5.0
-19425.87875436291,-187500.02235174447,41.41778247568399,-187500.02235174447,-187500.02235174447,-187500.02235174447,-187500.02235174447,-187500.02235174447,1730329313.0759237,1730329312.621244,5.0
-19178.064963586923,-187500.02235174447,35.71808763958069,-187500.02235174447,-187500.02235174447,-187500.02235174447,-187500.02235174447,-187500.02235174447,1730329313.079882,1730329312.621244,5.0
-19324.1112618579,-187500.02235174447,50.3137767688962,-187500.02235174447,-187500.02235174447,-187500.02235174447,-187500.02235174447,-187500.02235174447,1730329313.0839293,1730329312.621244,5.0
-19499.90773199889,-187500.02235174447,37.30506149590749,-187500.02235174447,-187500.02235174447,-187500.02235174447,-187500.02235174447,-187500.02235174447,1730329313.0880089,1730329312.621244,5.0
-19511.57534260456,-187500.02235174447,48.70445116811409,-187500.02235174447,-187500.02235174447,-187500.02235174447,-187500.02235174447,-187500.02235174447,1730329313.0929327,1730329312.621244,5.0
-19522.393586920927,-187500.02235174447,131.2941469304737,-187500.02235174447,-187500.02235174447,-187500.02235174447,-187500.02235174447,-187500.02235174447,1730329313.096063,1730329312.621244,5.0
-19481.98163294573,-187500.02235174447,56.3487477718291,-187500.02235174447,-187500.02235174447,-187500.02235174447,-187500.02235174447,-187500.02235174447,1730329313.0999897,1730329312.621244,5.0
-19456.590051244504,-187500.02235174447,-44.32350925487391,-187500.02235174447,-187500.02235174447,-187500.02235174447,-187500.02235174447,-187500.02235174447,1730329313.1040044,1730329312.621244,5.0
-19424.22472527322,-187500.02235174447,63.23308506406368,-187500.02235174447,-187500.02235174447,-187500.02235174447,-187500.02235174447,-187500.02235174447,1730329313.1080923,1730329312.621244,5.0
-19349.25697437012,-187500.02235174447,98.72765525909128,-187500.02235174447,-187500.02235174447,-187500.02235174447,-187500.02235174447,-187500.02235174447,1730329313.1119392,1730329312.621244,5.0
-19400.84480057297,-187500.02235174447,-24.18458750064224,-187500.02235174447,-187500.02235174447,-187500.02235174447,-187500.02235174447,-187500.02235174447,1730329313.115896,1730329312.621244,5.0
-19534.44117718234,-187500.02235174447,-14.014543773477529,-187500.02235174447,-187500.02235174447,-187500.02235174447,-187500.02235174447,-187500.02235174447,1730329313.120004,1730329312.621244,5.0
-19344.63016326788,-187500.02235174447,121.43702762568329,-187500.02235174447,-187500.02235174447,-187500.02235174447,-187500.02235174447,-187500.02235174447,1730329313.1230972,1730329312.621244,5.0
-19417.586257169994,-187500.02235174447,82.83556495136797,-187500.02235174447,-187500.02235174447,-187500.02235174447,-187500.02235174447,-187500.02235174447,1730329313.128179,1730329312.621244,5.0
-19476.304289854084,-187500.02235174447,39.85316036381249,-187500.02235174447,-187500.02235174447,-187500.02235174447,-187500.02235174447,-187500.02235174447,1730329313.1319673,1730329312.621244,5.0
-19349.1675673923,-187500.02235174447,-12.09229375032112,-187500.02235174447,-187500.02235174447,-187500.02235174447,-187500.02235174447,-187500.02235174447,1730329313.1361372,1730329312.621244,5.0
-19393.84870455846,-187500.02235174447,24.85513983430145,-187500.02235174447,-187500.02235174447,-187500.02235174447,-187500.02235174447,-187500.02235174447,1730329313.13993,1730329312.621244,5.0
-19437.34519926849,-187500.02235174447,67.25639906601896,-187500.02235174447,-187500.02235174447,-187500.02235174447,-187500.02235174447,-187500.02235174447,1730329313.1441624,1730329312.621244,5.0
-19433.99243760019,-187500.02235174447,81.89679168424507,-187500.02235174447,-187500.02235174447,-187500.02235174447,-187500.02235174447,-187500.02235174447,1730329313.1480532,1730329312.621244,5.0
-19439.803891158568,-187500.02235174447,71.99496889054404,-187500.02235174447,-187500.02235174447,-187500.02235174447,-187500.02235174447,-187500.02235174447,1730329313.150955,1730329312.621244,5.0
-19466.55892927157,-187500.02235174447,-17.009677530488673,-187500.02235174447,-187500.02235174447,-187500.02235174447,-187500.02235174447,-187500.02235174447,1730329313.1549685,1730329312.621244,5.0
-19483.72506901325,-187500.02235174447,59.4779919955721,-187500.02235174447,-187500.02235174447,-187500.02235174447,-187500.02235174447,-187500.02235174447,1730329313.160149,1730329312.621244,5.0
-19415.64165540238,-187500.02235174447,56.08052683836542,-187500.02235174447,-187500.02235174447,-187500.02235174447,-187500.02235174447,-187500.02235174447,1730329313.1641183,1730329312.621244,5.0
-19390.004204512144,-187500.02235174447,-21.278860721452325,-187500.02235174447,-187500.02235174447,-187500.02235174447,-187500.02235174447,-187500.02235174447,1730329313.1680667,1730329312.621244,5.0
-19324.82651768047,-187500.02235174447,39.62964291925943,-187500.02235174447,-187500.02235174447,-187500.02235174447,-187500.02235174447,-187500.02235174447,1730329313.1721022,1730329312.621244,5.0
-19434.12654806692,-187500.02235174447,31.80653235990195,-187500.02235174447,-187500.02235174447,-187500.02235174447,-187500.02235174447,-187500.02235174447,1730329313.1761425,1730329312.621244,5.0
-19504.73570880124,-187500.02235174447,10.237098960530634,-187500.02235174447,-187500.02235174447,-187500.02235174447,-187500.02235174447,-187500.02235174447,1730329313.179136,1730329312.621244,5.0
-19378.247186928653,-187500.02235174447,83.70728298512495,-187500.02235174447,-187500.02235174447,-187500.02235174447,-187500.02235174447,-187500.02235174447,1730329313.18407,1730329312.621244,5.0
-19416.669835647328,-187500.02235174447,-27.894977080223214,-187500.02235174447,-187500.02235174447,-187500.02235174447,-187500.02235174447,-187500.02235174447,1730329313.1881886,1730329312.621244,5.0
-19567.521758976192,-187500.02235174447,-121.79465553696818,-187500.02235174447,-187500.02235174447,-187500.02235174447,-187500.02235174447,-187500.02235174447,1730329313.192193,1730329312.621244,5.0
-19368.993564724155,-187500.02235174447,105.0084954510326,-187500.02235174447,-187500.02235174447,-187500.02235174447,-187500.02235174447,-187500.02235174447,1730329313.196046,1730329312.621244,5.0
-19215.21356287164,-187500.02235174447,126.2650044280296,-187500.02235174447,-187500.02235174447,-187500.02235174447,-187500.02235174447,-187500.02235174447,1730329313.2001865,1730329312.621244,5.0
-19383.231625942182,-187500.02235174447,-6.303191936396591,-187500.02235174447,-187500.02235174447,-187500.02235174447,-187500.02235174447,-187500.02235174447,1730329313.2032251,1730329312.621244,5.0
-19542.17488076388,-187500.02235174447,31.04657304842151,-187500.02235174447,-187500.02235174447,-187500.02235174447,-187500.02235174447,-187500.02235174447,1730329313.2070353,1730329312.621244,5.0
-19502.85816226699,-187500.02235174447,48.86091337930124,-187500.02235174447,-187500.02235174447,-187500.02235174447,-187500.02235174447,-187500.02235174447,1730329313.2114868,1730329312.621244,5.0
-19413.965274568232,-187500.02235174447,56.75107917202463,-187500.02235174447,-187500.02235174447,-187500.02235174447,-187500.02235174447,-187500.02235174447,1730329313.2160895,1730329312.621244,5.0
-19472.90682469688,-187500.02235174447,-51.61017794730401,-187500.02235174447,-187500.02235174447,-187500.02235174447,-187500.02235174447,-187500.02235174447,1730329313.2203147,1730329312.621244,5.0
-19453.10317910948,-187500.02235174447,-63.74717518653574,-187500.02235174447,-187500.02235174447,-187500.02235174447,-187500.02235174447,-187500.02235174447,1730329313.2241254,1730329312.621244,5.0
-19400.04013777258,-187500.02235174447,34.37698297226226,-187500.02235174447,-187500.02235174447,-187500.02235174447,-187500.02235174447,-187500.02235174447,1730329313.2273188,1730329312.621244,5.0
-19388.14900972236,-187500.02235174447,57.26516929449669,-187500.02235174447,-187500.02235174447,-187500.02235174447,-187500.02235174447,-187500.02235174447,1730329313.2314,1730329312.621244,5.0
-19463.809664703567,-187500.02235174447,-15.020372273966348,-187500.02235174447,-187500.02235174447,-187500.02235174447,-187500.02235174447,-187500.02235174447,1730329313.235358,1730329312.621244,5.0
-19384.863303287424,-187500.02235174447,37.28270975145218,-187500.02235174447,-187500.02235174447,-187500.02235174447,-187500.02235174447,-187500.02235174447,1730329313.2393148,1730329312.621244,5.0
-19378.71657356221,-187500.02235174447,54.15827681520901,-187500.02235174447,-187500.02235174447,-187500.02235174447,-187500.02235174447,-187500.02235174447,1730329313.2441893,1730329312.621244,5.0
-19338.751654476127,-187500.02235174447,46.46927672258338,-187500.02235174447,-187500.02235174447,-187500.02235174447,-187500.02235174447,-187500.02235174447,1730329313.2481017,1730329312.621244,5.0
-19379.230663684688,-187500.02235174447,28.40906720269528,-187500.02235174447,-187500.02235174447,-187500.02235174447,-187500.02235174447,-187500.02235174447,1730329313.252361,1730329312.621244,5.0
-19391.36766092392,-187500.02235174447,34.93577658364494,-187500.02235174447,-187500.02235174447,-187500.02235174447,-187500.02235174447,-187500.02235174447,1730329313.2553651,1730329312.621244,5.0
-19488.08365918204,-187500.02235174447,47.09512556733198,-187500.02235174447,-187500.02235174447,-187500.02235174447,-187500.02235174447,-187500.02235174447,1730329313.2594385,1730329312.621244,5.0
-19484.08269692453,-187500.02235174447,27.09031427983216,-187500.02235174447,-187500.02235174447,-187500.02235174447,-187500.02235174447,-187500.02235174447,1730329313.2632904,1730329312.621244,5.0
-19419.84378335998,-187500.02235174447,25.458636934594743,-187500.02235174447,-187500.02235174447,-187500.02235174447,-187500.02235174447,-187500.02235174447,1730329313.2674892,1730329312.621244,5.0
-19351.2686313711,-187500.02235174447,32.633546904748314,-187500.02235174447,-187500.02235174447,-187500.02235174447,-187500.02235174447,-187500.02235174447,1730329313.2724545,1730329312.621244,5.0
-19461.820359447047,-187500.02235174447,-4.738569824525097,-187500.02235174447,-187500.02235174447,-187500.02235174447,-187500.02235174447,-187500.02235174447,1730329313.2762663,1730329312.621244,5.0
-19427.51043170815,-187500.02235174447,26.95620381310032,-187500.02235174447,-187500.02235174447,-187500.02235174447,-187500.02235174447,-187500.02235174447,1730329313.2803977,1730329312.621244,5.0
-19331.01795089459,-187500.02235174447,48.99502384603308,-187500.02235174447,-187500.02235174447,-187500.02235174447,-187500.02235174447,-187500.02235174447,1730329313.283256,1730329312.621244,5.0
-19423.241248517188,-187500.02235174447,-22.21763398857522,-187500.02235174447,-187500.02235174447,-187500.02235174447,-187500.02235174447,-187500.02235174447,1730329313.2874372,1730329312.621244,5.0
-19452.85730992047,-187500.02235174447,38.9143870966896,-187500.02235174447,-187500.02235174447,-187500.02235174447,-187500.02235174447,-187500.02235174447,1730329313.291214,1730329312.621244,5.0
-19397.93907379378,-187500.02235174447,84.4895940410607,-187500.02235174447,-187500.02235174447,-187500.02235174447,-187500.02235174447,-187500.02235174447,1730329313.2953098,1730329312.621244,5.0
-19402.8788093184,-187500.02235174447,21.32356421036294,-187500.02235174447,-187500.02235174447,-187500.02235174447,-187500.02235174447,-187500.02235174447,1730329313.3004282,1730329312.621244,5.0
-19395.592140625973,-187500.02235174447,-18.619003131270784,-187500.02235174447,-187500.02235174447,-187500.02235174447,-187500.02235174447,-187500.02235174447,1730329313.3044386,1730329312.621244,5.0
-19438.999228358178,-187500.02235174447,-51.54312271393809,-187500.02235174447,-187500.02235174447,-187500.02235174447,-187500.02235174447,-187500.02235174447,1730329313.308473,1730329312.621244,5.0
-19463.58614725901,-187500.02235174447,7.53253788143848,-187500.02235174447,-187500.02235174447,-187500.02235174447,-187500.02235174447,-187500.02235174447,1730329313.311412,1730329312.621244,5.0
-19399.86132381693,-187500.02235174447,69.82684967837926,-187500.02235174447,-187500.02235174447,-187500.02235174447,-187500.02235174447,-187500.02235174447,1730329313.315195,1730329312.621244,5.0
-19384.483323631684,-187500.02235174447,33.70643063860305,-187500.02235174447,-187500.02235174447,-187500.02235174447,-187500.02235174447,-187500.02235174447,1730329313.3194373,1730329312.621244,5.0
-19438.775710913626,-187500.02235174447,2.861023290279304,-187500.02235174447,-187500.02235174447,-187500.02235174447,-187500.02235174447,-187500.02235174447,1730329313.3232412,1730329312.621244,5.0
-19464.45786529277,-187500.02235174447,27.64910789121484,-187500.02235174447,-187500.02235174447,-187500.02235174447,-187500.02235174447,-187500.02235174447,1730329313.3274224,1730329312.621244,5.0
-19385.489152132173,-187500.02235174447,65.75883218751338,-187500.02235174447,-187500.02235174447,-187500.02235174447,-187500.02235174447,-187500.02235174447,1730329313.3323312,1730329312.621244,5.0
-19407.818544843023,-187500.02235174447,8.381904170740148,-187500.02235174447,-187500.02235174447,-187500.02235174447,-187500.02235174447,-187500.02235174447,1730329313.336724,1730329312.621244,5.0
-19485.22263589176,-187500.02235174447,-56.50520998301626,-187500.02235174447,-187500.02235174447,-187500.02235174447,-187500.02235174447,-187500.02235174447,1730329313.3395305,1730329312.621244,5.0
-19428.18098404181,-187500.02235174447,30.800703859413133,-187500.02235174447,-187500.02235174447,-187500.02235174447,-187500.02235174447,-187500.02235174447,1730329313.3434863,1730329312.621244,5.0
-19417.720367636724,-187500.02235174447,48.95032035712247,-187500.02235174447,-187500.02235174447,-187500.02235174447,-187500.02235174447,-187500.02235174447,1730329313.3474529,1730329312.621244,5.0
-19376.391992138862,-187500.02235174447,22.798779344413205,-187500.02235174447,-187500.02235174447,-187500.02235174447,-187500.02235174447,-187500.02235174447,1730329313.351467,1730329312.621244,5.0
-19414.524068179617,-187500.02235174447,-20.38479094324004,-187500.02235174447,-187500.02235174447,-187500.02235174447,-187500.02235174447,-187500.02235174447,1730329313.35552,1730329312.621244,5.0
-19406.768012853627,-187500.02235174447,39.92021559717841,-187500.02235174447,-187500.02235174447,-187500.02235174447,-187500.02235174447,-187500.02235174447,1730329313.3605106,1730329312.621244,5.0
-19342.0150091666,-187500.02235174447,95.5313558019824,-187500.02235174447,-187500.02235174447,-187500.02235174447,-187500.02235174447,-187500.02235174447,1730329313.3634644,1730329312.621244,5.0
-19378.80598054004,-187500.02235174447,49.866741879790055,-187500.02235174447,-187500.02235174447,-187500.02235174447,-187500.02235174447,-187500.02235174447,1730329313.3675065,1730329312.621244,5.0
-19426.906934607858,-187500.02235174447,-25.61509914578189,-187500.02235174447,-187500.02235174447,-187500.02235174447,-187500.02235174447,-187500.02235174447,1730329313.3714995,1730329312.621244,5.0
-19455.830091933025,-187500.02235174447,-2.503395378994391,-187500.02235174447,-187500.02235174447,-187500.02235174447,-187500.02235174447,-187500.02235174447,1730329313.375523,1730329312.621244,5.0
-19430.2373445317,-187500.02235174447,26.86679683527909,-187500.02235174447,-187500.02235174447,-187500.02235174447,-187500.02235174447,-187500.02235174447,1730329313.3794973,1730329312.621244,5.0
-19361.237509398165,-187500.02235174447,54.62766344877046,-187500.02235174447,-187500.02235174447,-187500.02235174447,-187500.02235174447,-187500.02235174447,1730329313.3835409,1730329312.621244,5.0
-19364.702029788736,-187500.02235174447,15.623869374259638,-187500.02235174447,-187500.02235174447,-187500.02235174447,-187500.02235174447,-187500.02235174447,1730329313.387558,1730329312.621244,5.0
-19443.40252201588,-187500.02235174447,4.604459357793255,-187500.02235174447,-187500.02235174447,-187500.02235174447,-187500.02235174447,-187500.02235174447,1730329313.391526,1730329312.621244,5.0
-19445.36947552794,-187500.02235174447,41.7530586425136,-187500.02235174447,-187500.02235174447,-187500.02235174447,-187500.02235174447,-187500.02235174447,1730329313.3955495,1730329312.621244,5.0
-19390.71946033472,-187500.02235174447,53.39831750372857,-187500.02235174447,-187500.02235174447,-187500.02235174447,-187500.02235174447,-187500.02235174447,1730329313.3993485,1730329312.621244,5.0
-19391.34530917946,-187500.02235174447,-12.539328639427264,-187500.02235174447,-187500.02235174447,-187500.02235174447,-187500.02235174447,-187500.02235174447,1730329313.4034705,1730329312.621244,5.0
-19496.91259824188,-187500.02235174447,-54.359442515306775,-187500.02235174447,-187500.02235174447,-187500.02235174447,-187500.02235174447,-187500.02235174447,1730329313.4074628,1730329312.621244,5.0
-19386.31616667702,-187500.02235174447,61.10966934080951,-187500.02235174447,-187500.02235174447,-187500.02235174447,-187500.02235174447,-187500.02235174447,1730329313.4114923,1730329312.621244,5.0
-19336.3153143305,-187500.02235174447,42.96005284310017,-187500.02235174447,-187500.02235174447,-187500.02235174447,-187500.02235174447,-187500.02235174447,1730329313.4155047,1730329312.621244,5.0
-19392.84287605797,-187500.02235174447,-40.836637119846,-187500.02235174447,-187500.02235174447,-187500.02235174447,-187500.02235174447,-187500.02235174447,1730329313.4195158,1730329312.621244,5.0
-19411.32776872251,-187500.02235174447,-22.26233747748584,-187500.02235174447,-187500.02235174447,-187500.02235174447,-187500.02235174447,-187500.02235174447,1730329313.4225247,1730329312.621244,5.0
-19390.652405101348,-187500.02235174447,53.1524483147202,-187500.02235174447,-187500.02235174447,-187500.02235174447,-187500.02235174447,-187500.02235174447,1730329313.4275432,1730329312.621244,5.0
-19384.81859979852,-187500.02235174447,65.66942520969215,-187500.02235174447,-187500.02235174447,-187500.02235174447,-187500.02235174447,-187500.02235174447,1730329313.4313493,1730329312.621244,5.0
-19441.815548159542,-187500.02235174447,-11.33233443884068,-187500.02235174447,-187500.02235174447,-187500.02235174447,-187500.02235174447,-187500.02235174447,1730329313.4356236,1730329312.621244,5.0
-19481.17697014534,-187500.02235174447,-17.389657186228895,-187500.02235174447,-187500.02235174447,-187500.02235174447,-187500.02235174447,-187500.02235174447,1730329313.4394948,1730329312.621244,5.0
-19386.740849821672,-187500.02235174447,30.711296881591903,-187500.02235174447,-187500.02235174447,-187500.02235174447,-187500.02235174447,-187500.02235174447,1730329313.4434204,1730329312.621244,5.0
-19350.955706948724,-187500.02235174447,69.08924211135412,-187500.02235174447,-187500.02235174447,-187500.02235174447,-187500.02235174447,-187500.02235174447,1730329313.4476428,1730329312.621244,5.0
-19353.52615756109,-187500.02235174447,25.10100902330983,-187500.02235174447,-187500.02235174447,-187500.02235174447,-187500.02235174447,-187500.02235174447,1730329313.4506056,1730329312.621244,5.0
-19418.681492648306,-187500.02235174447,-10.818244316368618,-187500.02235174447,-187500.02235174447,-187500.02235174447,-187500.02235174447,-187500.02235174447,1730329313.4556355,1730329312.621244,5.0
-19446.08473135051,-187500.02235174447,19.28955546493,-187500.02235174447,-187500.02235174447,-187500.02235174447,-187500.02235174447,-187500.02235174447,1730329313.459647,1730329312.621244,5.0
-19412.870039089925,-187500.02235174447,48.1009540678208,-187500.02235174447,-187500.02235174447,-187500.02235174447,-187500.02235174447,-187500.02235174447,1730329313.4636586,1730329312.621244,5.0
-19372.7263060482,-187500.02235174447,48.01154708999957,-187500.02235174447,-187500.02235174447,-187500.02235174447,-187500.02235174447,-187500.02235174447,1730329313.4676268,1730329312.621244,5.0
-19424.47059446223,-187500.02235174447,-27.760866613491373,-187500.02235174447,-187500.02235174447,-187500.02235174447,-187500.02235174447,-187500.02235174447,1730329313.470612,1730329312.621244,5.0
-19508.356691402994,-187500.02235174447,-54.895884382234144,-187500.02235174447,-187500.02235174447,-187500.02235174447,-187500.02235174447,-187500.02235174447,1730329313.4745755,1730329312.621244,5.0
-19428.672722419826,-187500.02235174447,-12.762846083980332,-187500.02235174447,-187500.02235174447,-187500.02235174447,-187500.02235174447,-187500.02235174447,1730329313.478686,1730329312.621244,5.0
-19305.04522383752,-187500.02235174447,57.9133698837006,-187500.02235174447,-187500.02235174447,-187500.02235174447,-187500.02235174447,-187500.02235174447,1730329313.4824617,1730329312.621244,5.0
-19364.187939666263,-187500.02235174447,26.844445090823783,-187500.02235174447,-187500.02235174447,-187500.02235174447,-187500.02235174447,-187500.02235174447,1730329313.487667,1730329312.621244,5.0
-19450.957411641768,-187500.02235174447,-4.872680291256939,-187500.02235174447,-187500.02235174447,-187500.02235174447,-187500.02235174447,-187500.02235174447,1730329313.4916184,1730329312.621244,5.0
-19414.18879201279,-187500.02235174447,65.60236997632623,-187500.02235174447,-187500.02235174447,-187500.02235174447,-187500.02235174447,-187500.02235174447,1730329313.4957073,1730329312.621244,5.0
-19341.25504985512,-187500.02235174447,76.42061429269485,-187500.02235174447,-187500.02235174447,-187500.02235174447,-187500.02235174447,-187500.02235174447,1730329313.4985623,1730329312.621244,5.0
-19376.906082261336,-187500.02235174447,14.394523429217749,-187500.02235174447,-187500.02235174447,-187500.02235174447,-187500.02235174447,-187500.02235174447,1730329313.502702,1730329312.621244,5.0
-19456.43358903332,-187500.02235174447,7.063151247877032,-187500.02235174447,-187500.02235174447,-187500.02235174447,-187500.02235174447,-187500.02235174447,1730329313.506517,1730329312.621244,5.0
-19456.880623922425,-187500.02235174447,26.352706712807027,-187500.02235174447,-187500.02235174447,-187500.02235174447,-187500.02235174447,-187500.02235174447,1730329313.5107338,1730329312.621244,5.0
-19397.84966681596,-187500.02235174447,23.0893520223322,-187500.02235174447,-187500.02235174447,-187500.02235174447,-187500.02235174447,-187500.02235174447,1730329313.515529,1730329312.621244,5.0
-19315.796412920525,-187500.02235174447,25.10100902330983,-187500.02235174447,-187500.02235174447,-187500.02235174447,-187500.02235174447,-187500.02235174447,1730329313.5195873,1730329312.621244,5.0
-19372.771009537104,-187500.02235174447,19.53542465393837,-187500.02235174447,-187500.02235174447,-187500.02235174447,-187500.02235174447,-187500.02235174447,1730329313.523564,1730329312.621244,5.0
-19418.32386473702,-187500.02235174447,62.89780889723407,-187500.02235174447,-187500.02235174447,-187500.02235174447,-187500.02235174447,-187500.02235174447,1730329313.52673,1730329312.621244,5.0
-19387.545512622062,-187500.02235174447,63.70247169762513,-187500.02235174447,-187500.02235174447,-187500.02235174447,-187500.02235174447,-187500.02235174447,1730329313.530743,1730329312.621244,5.0
-19412.06537628953,-187500.02235174447,-4.380941913240184,-187500.02235174447,-187500.02235174447,-187500.02235174447,-187500.02235174447,-187500.02235174447,1730329313.534736,1730329312.621244,5.0
-19423.50946945065,-187500.02235174447,-6.951392525600497,-187500.02235174447,-187500.02235174447,-187500.02235174447,-187500.02235174447,-187500.02235174447,1730329313.5388072,1730329312.621244,5.0
-19423.934152595302,-187500.02235174447,14.014543773477529,-187500.02235174447,-187500.02235174447,-187500.02235174447,-187500.02235174447,-187500.02235174447,1730329313.5437746,1730329312.621244,5.0
-19416.31220773604,-187500.02235174447,56.08052683836542,-187500.02235174447,-187500.02235174447,-187500.02235174447,-187500.02235174447,-187500.02235174447,1730329313.5477667,1730329312.621244,5.0
-19395.189809225776,-187500.02235174447,34.77931437245779,-187500.02235174447,-187500.02235174447,-187500.02235174447,-187500.02235174447,-187500.02235174447,1730329313.5517929,1730329312.621244,5.0
-19466.491874038205,-187500.02235174447,-8.314848937374228,-187500.02235174447,-187500.02235174447,-187500.02235174447,-187500.02235174447,-187500.02235174447,1730329313.5547376,1730329312.621244,5.0
-19395.0780505035,-187500.02235174447,28.744343369524884,-187500.02235174447,-187500.02235174447,-187500.02235174447,-187500.02235174447,-187500.02235174447,1730329313.558766,1730329312.621244,5.0
-19362.35509662093,-187500.02235174447,77.47114628209428,-187500.02235174447,-187500.02235174447,-187500.02235174447,-187500.02235174447,-187500.02235174447,1730329313.5628345,1730329312.621244,5.0
-19356.67775352928,-187500.02235174447,25.212767745586365,-187500.02235174447,-187500.02235174447,-187500.02235174447,-187500.02235174447,-187500.02235174447,1730329313.5667808,1730329312.621244,5.0
-19418.12269903692,-187500.02235174447,-1.5869738563268014,-187500.02235174447,-187500.02235174447,-187500.02235174447,-187500.02235174447,-187500.02235174447,1730329313.5717824,1730329312.621244,5.0
-19424.15767003985,-187500.02235174447,30.800703859413133,-187500.02235174447,-187500.02235174447,-187500.02235174447,-187500.02235174447,-187500.02235174447,1730329313.5758169,1730329312.621244,5.0
-19360.455198342228,-187500.02235174447,80.0863003833652,-187500.02235174447,-187500.02235174447,-187500.02235174447,-187500.02235174447,-187500.02235174447,1730329313.5799084,1730329312.621244,5.0
-19345.74775049064,-187500.02235174447,72.64316947974795,-187500.02235174447,-187500.02235174447,-187500.02235174447,-187500.02235174447,-187500.02235174447,1730329313.582733,1730329312.621244,5.0
-19423.531821195105,-187500.02235174447,-16.339125196829464,-187500.02235174447,-187500.02235174447,-187500.02235174447,-187500.02235174447,-187500.02235174447,1730329313.5869195,1730329312.621244,5.0
-19473.599728774992,-187500.02235174447,-63.054271108421226,-187500.02235174447,-187500.02235174447,-187500.02235174447,-187500.02235174447,-187500.02235174447,1730329313.590656,1730329312.621244,5.0
-19454.600745987984,-187500.02235174447,50.13496281325374,-187500.02235174447,-187500.02235174447,-187500.02235174447,-187500.02235174447,-187500.02235174447,1730329313.5948565,1730329312.621244,5.0
-19347.424131324784,-187500.02235174447,77.02411139298813,-187500.02235174447,-187500.02235174447,-187500.02235174447,-187500.02235174447,-187500.02235174447,1730329313.598668,1730329312.621244,5.0
-19344.71957024569,-187500.02235174447,31.828884104357257,-187500.02235174447,-187500.02235174447,-187500.02235174447,-187500.02235174447,-187500.02235174447,1730329313.60386,1730329312.621244,5.0
-19409.45022218826,-187500.02235174447,11.622907116759672,-187500.02235174447,-187500.02235174447,-187500.02235174447,-187500.02235174447,-187500.02235174447,1730329313.606717,1730329312.621244,5.0
-19439.11098708045,-187500.02235174447,31.605366659804183,-187500.02235174447,-187500.02235174447,-187500.02235174447,-187500.02235174447,-187500.02235174447,1730329313.6109123,1730329312.621244,5.0
-19385.89148353237,-187500.02235174447,28.25260499150813,-187500.02235174447,-187500.02235174447,-187500.02235174447,-187500.02235174447,-187500.02235174447,1730329313.6147523,1730329312.621244,5.0
-19349.27932611457,-187500.02235174447,33.371154471773444,-187500.02235174447,-187500.02235174447,-187500.02235174447,-187500.02235174447,-187500.02235174447,1730329313.6189077,1730329312.621244,5.0
-19418.83795485949,-187500.02235174447,17.412008930684202,-187500.02235174447,-187500.02235174447,-187500.02235174447,-187500.02235174447,-187500.02235174447,1730329313.6229253,1730329312.621244,5.0
-19386.83025679949,-187500.02235174447,36.52275043997174,-187500.02235174447,-187500.02235174447,-187500.02235174447,-187500.02235174447,-187500.02235174447,1730329313.6269343,1730329312.621244,5.0
-19348.87699471438,-187500.02235174447,75.92887591467809,-187500.02235174447,-187500.02235174447,-187500.02235174447,-187500.02235174447,-187500.02235174447,1730329313.6317923,1730329312.621244,5.0
-19363.85266349944,-187500.02235174447,7.420779159161944,-187500.02235174447,-187500.02235174447,-187500.02235174447,-187500.02235174447,-187500.02235174447,1730329313.634792,1730329312.621244,5.0
-19393.64753885836,-187500.02235174447,4.291534935418956,-187500.02235174447,-187500.02235174447,-187500.02235174447,-187500.02235174447,-187500.02235174447,1730329313.6389325,1730329312.621244,5.0
-19409.159649510344,-187500.02235174447,61.75786993001341,-187500.02235174447,-187500.02235174447,-187500.02235174447,-187500.02235174447,-187500.02235174447,1730329313.642871,1730329312.621244,5.0
-19370.69229730276,-187500.02235174447,97.18538489167511,-187500.02235174447,-187500.02235174447,-187500.02235174447,-187500.02235174447,-187500.02235174447,1730329313.6468005,1730329312.621244,5.0
-19370.178207180288,-187500.02235174447,25.36922995677352,-187500.02235174447,-187500.02235174447,-187500.02235174447,-187500.02235174447,-187500.02235174447,1730329313.6509671,1730329312.621244,5.0
-19389.95950102324,-187500.02235174447,-4.962087269078168,-187500.02235174447,-187500.02235174447,-187500.02235174447,-187500.02235174447,-187500.02235174447,1730329313.6548984,1730329312.621244,5.0
-19422.682454905804,-187500.02235174447,21.591785143826623,-187500.02235174447,-187500.02235174447,-187500.02235174447,-187500.02235174447,-187500.02235174447,1730329313.6599305,1730329312.621244,5.0
-19403.527009907604,-187500.02235174447,44.59173018833759,-187500.02235174447,-187500.02235174447,-187500.02235174447,-187500.02235174447,-187500.02235174447,1730329313.663223,1730329312.621244,5.0
-19365.86432050041,-187500.02235174447,59.20977106210841,-187500.02235174447,-187500.02235174447,-187500.02235174447,-187500.02235174447,-187500.02235174447,1730329313.6657548,1730329312.621244,5.0
-19401.85062907346,-187500.02235174447,14.953317040600425,-187500.02235174447,-187500.02235174447,-187500.02235174447,-187500.02235174447,-187500.02235174447,1730329313.6712132,1730329312.621244,5.0
-19423.531821195105,-187500.02235174447,18.08256126434341,-187500.02235174447,-187500.02235174447,-187500.02235174447,-187500.02235174447,-187500.02235174447,1730329313.6750093,1730329312.621244,5.0
-19384.55037886505,-187500.02235174447,72.57611424638203,-187500.02235174447,-187500.02235174447,-187500.02235174447,-187500.02235174447,-187500.02235174447,1730329313.6792486,1730329312.621244,5.0
-19345.904212701826,-187500.02235174447,61.13202108526482,-187500.02235174447,-187500.02235174447,-187500.02235174447,-187500.02235174447,-187500.02235174447,1730329313.6828444,1730329312.621244,5.0
-19374.31327990452,-187500.02235174447,-11.377037927751294,-187500.02235174447,-187500.02235174447,-187500.02235174447,-187500.02235174447,-187500.02235174447,1730329313.6884103,1730329312.621244,5.0
-19457.55117625608,-187500.02235174447,-28.54317766942712,-187500.02235174447,-187500.02235174447,-187500.02235174447,-187500.02235174447,-187500.02235174447,1730329313.690872,1730329312.621244,5.0
-19437.725178924225,-187500.02235174447,29.481950936550017,-187500.02235174447,-187500.02235174447,-187500.02235174447,-187500.02235174447,-187500.02235174447,1730329313.6951065,1730329312.621244,5.0
-19326.14527060333,-187500.02235174447,68.73161420006922,-187500.02235174447,-187500.02235174447,-187500.02235174447,-187500.02235174447,-187500.02235174447,1730329313.6989083,1730329312.621244,5.0
-19379.81180904053,-187500.02235174447,25.12336076776514,-187500.02235174447,-187500.02235174447,-187500.02235174447,-187500.02235174447,-187500.02235174447,1730329313.703233,1730329312.621244,5.0
-19426.19167878529,-187500.02235174447,17.926099053156264,-187500.02235174447,-187500.02235174447,-187500.02235174447,-187500.02235174447,-187500.02235174447,1730329313.7070067,1730329312.621244,5.0
-19398.07318426051,-187500.02235174447,30.465427692583525,-187500.02235174447,-187500.02235174447,-187500.02235174447,-187500.02235174447,-187500.02235174447,1730329313.7111332,1730329312.621244,5.0
-19388.86426554493,-187500.02235174447,40.613119675292936,-187500.02235174447,-187500.02235174447,-187500.02235174447,-187500.02235174447,-187500.02235174447,1730329313.7149837,1730329312.621244,5.0
-19405.69512911977,-187500.02235174447,4.068017490865885,-187500.02235174447,-187500.02235174447,-187500.02235174447,-187500.02235174447,-187500.02235174447,1730329313.718048,1730329312.621244,5.0
-19399.727213350205,-187500.02235174447,19.82599733185737,-187500.02235174447,-187500.02235174447,-187500.02235174447,-187500.02235174447,-187500.02235174447,1730329313.7220137,1730329312.621244,5.0
-19423.80004212857,-187500.02235174447,42.0883348093432,-187500.02235174447,-187500.02235174447,-187500.02235174447,-187500.02235174447,-187500.02235174447,1730329313.7270665,1730329312.621244,5.0
-19418.50267869266,-187500.02235174447,41.64129992023706,-187500.02235174447,-187500.02235174447,-187500.02235174447,-187500.02235174447,-187500.02235174447,1730329313.7310426,1730329312.621244,5.0
-19428.44920497528,-187500.02235174447,-7.443130903617252,-187500.02235174447,-187500.02235174447,-187500.02235174447,-187500.02235174447,-187500.02235174447,1730329313.7350812,1730329312.621244,5.0
-19414.635826901893,-187500.02235174447,-13.791026328924458,-187500.02235174447,-187500.02235174447,-187500.02235174447,-187500.02235174447,-187500.02235174447,1730329313.739236,1730329312.621244,5.0
-19401.202428484256,-187500.02235174447,52.168971558686685,-187500.02235174447,-187500.02235174447,-187500.02235174447,-187500.02235174447,-187500.02235174447,1730329313.7420523,1730329312.621244,5.0
-19377.21900668371,-187500.02235174447,64.32832054237373,-187500.02235174447,-187500.02235174447,-187500.02235174447,-187500.02235174447,-187500.02235174447,1730329313.746168,1730329312.621244,5.0
-19354.68844827276,-187500.02235174447,42.91534935418956,-187500.02235174447,-187500.02235174447,-187500.02235174447,-187500.02235174447,-187500.02235174447,1730329313.7501197,1730329312.621244,5.0
-19409.45022218826,-187500.02235174447,-8.583069870837912,-187500.02235174447,-187500.02235174447,-187500.02235174447,-187500.02235174447,-187500.02235174447,1730329313.7551925,1730329312.621244,5.0
-19480.349955600497,-187500.02235174447,-1.9446017676117144,-187500.02235174447,-187500.02235174447,-187500.02235174447,-187500.02235174447,-187500.02235174447,1730329313.7590804,1730329312.621244,5.0
-19364.389105366365,-187500.02235174447,43.96588134358899,-187500.02235174447,-187500.02235174447,-187500.02235174447,-187500.02235174447,-187500.02235174447,1730329313.7635903,1730329312.621244,5.0
-19367.94303273476,-187500.02235174447,36.76861962898012,-187500.02235174447,-187500.02235174447,-187500.02235174447,-187500.02235174447,-187500.02235174447,1730329313.7671664,1730329312.621244,5.0
-19399.19077148328,-187500.02235174447,-11.64525886121498,-187500.02235174447,-187500.02235174447,-187500.02235174447,-187500.02235174447,-187500.02235174447,1730329313.7704167,1730329312.621244,5.0
-19416.44631820277,-187500.02235174447,34.57814867236002,-187500.02235174447,-187500.02235174447,-187500.02235174447,-187500.02235174447,-187500.02235174447,1730329313.7741106,1730329312.621244,5.0
-19383.633957342383,-187500.02235174447,79.32634107188477,-187500.02235174447,-187500.02235174447,-187500.02235174447,-187500.02235174447,-187500.02235174447,1730329313.7786908,1730329312.621244,5.0
-19329.855660182915,-187500.02235174447,91.17276563319751,-187500.02235174447,-187500.02235174447,-187500.02235174447,-187500.02235174447,-187500.02235174447,1730329313.781993,1730329312.621244,5.0
-19405.31514946403,-187500.02235174447,4.291534935418956,-187500.02235174447,-187500.02235174447,-187500.02235174447,-187500.02235174447,-187500.02235174447,1730329313.7875855,1730329312.621244,5.0
-19427.823356130524,-187500.02235174447,-14.528633895949593,-187500.02235174447,-187500.02235174447,-187500.02235174447,-187500.02235174447,-187500.02235174447,1730329313.7909777,1730329312.621244,5.0
-19408.22087624322,-187500.02235174447,44.45761972160575,-187500.02235174447,-187500.02235174447,-187500.02235174447,-187500.02235174447,-187500.02235174447,1730329313.7953005,1730329312.621244,5.0
-19372.949823492745,-187500.02235174447,48.65974767920348,-187500.02235174447,-187500.02235174447,-187500.02235174447,-187500.02235174447,-187500.02235174447,1730329313.7981274,1730329312.621244,5.0
-19399.257826716643,-187500.02235174447,-17.680229864147886,-187500.02235174447,-187500.02235174447,-187500.02235174447,-187500.02235174447,-187500.02235174447,1730329313.8022892,1730329312.621244,5.0
-19435.55705971206,-187500.02235174447,-35.740439384035994,-187500.02235174447,-187500.02235174447,-187500.02235174447,-187500.02235174447,-187500.02235174447,1730329313.806312,1730329312.621244,5.0
-19409.07024253252,-187500.02235174447,45.172875544175575,-187500.02235174447,-187500.02235174447,-187500.02235174447,-187500.02235174447,-187500.02235174447,1730329313.8107111,1730329312.621244,5.0
-19360.343439619952,-187500.02235174447,76.89000092625629,-187500.02235174447,-187500.02235174447,-187500.02235174447,-187500.02235174447,-187500.02235174447,1730329313.8150215,1730329312.621244,5.0
-19379.588291595974,-187500.02235174447,23.625793889259565,-187500.02235174447,-187500.02235174447,-187500.02235174447,-187500.02235174447,-187500.02235174447,1730329313.8196988,1730329312.621244,5.0
-19435.624114945425,-187500.02235174447,-21.94941305511153,-187500.02235174447,-187500.02235174447,-187500.02235174447,-187500.02235174447,-187500.02235174447,1730329313.8230505,1730329312.621244,5.0
-19471.923347940847,-187500.02235174447,-22.97759330005566,-187500.02235174447,-187500.02235174447,-187500.02235174447,-187500.02235174447,-187500.02235174447,1730329313.8262568,1730329312.621244,5.0
-19391.725288835205,-187500.02235174447,29.4372474476394,-187500.02235174447,-187500.02235174447,-187500.02235174447,-187500.02235174447,-187500.02235174447,1730329313.8306544,1730329312.621244,5.0
-19350.48632031516,-187500.02235174447,49.15148605722023,-187500.02235174447,-187500.02235174447,-187500.02235174447,-187500.02235174447,-187500.02235174447,1730329313.834098,1730329312.621244,5.0
-19394.80982957004,-187500.02235174447,-11.377037927751294,-187500.02235174447,-187500.02235174447,-187500.02235174447,-187500.02235174447,-187500.02235174447,1730329313.838693,1730329312.621244,5.0
-19406.946826809268,-187500.02235174447,-1.810491300879872,-187500.02235174447,-187500.02235174447,-187500.02235174447,-187500.02235174447,-187500.02235174447,1730329313.8432732,1730329312.621244,5.0
-19400.26365521713,-187500.02235174447,52.39248900323975,-187500.02235174447,-187500.02235174447,-187500.02235174447,-187500.02235174447,-187500.02235174447,1730329313.84772,1730329312.621244,5.0
-19395.41332667033,-187500.02235174447,31.247738748519275,-187500.02235174447,-187500.02235174447,-187500.02235174447,-187500.02235174447,-187500.02235174447,1730329313.8512394,1730329312.621244,5.0
-19431.354931754464,-187500.02235174447,-14.707447851592049,-187500.02235174447,-187500.02235174447,-187500.02235174447,-187500.02235174447,-187500.02235174447,1730329313.8542528,1730329312.621244,5.0
-19439.870946391937,-187500.02235174447,4.783273313435712,-187500.02235174447,-187500.02235174447,-187500.02235174447,-187500.02235174447,-187500.02235174447,1730329313.858297,1730329312.621244,5.0
-19407.61737914293,-187500.02235174447,51.47606748057216,-187500.02235174447,-187500.02235174447,-187500.02235174447,-187500.02235174447,-187500.02235174447,1730329313.8626745,1730329312.621244,5.0
-19448.07403660703,-187500.02235174447,-0.0894069778212282,-187500.02235174447,-187500.02235174447,-187500.02235174447,-187500.02235174447,-187500.02235174447,1730329313.8661027,1730329312.621244,5.0
-19399.77191683912,-187500.02235174447,-50.89492212473418,-187500.02235174447,-187500.02235174447,-187500.02235174447,-187500.02235174447,-187500.02235174447,1730329313.8717892,1730329312.621244,5.0
-19381.711707319228,-187500.02235174447,34.44403820562818,-187500.02235174447,-187500.02235174447,-187500.02235174447,-187500.02235174447,-187500.02235174447,1730329313.8752873,1730329312.621244,5.0
-19414.635826901893,-187500.02235174447,40.79193363093539,-187500.02235174447,-187500.02235174447,-187500.02235174447,-187500.02235174447,-187500.02235174447,1730329313.8784528,1730329312.621244,5.0
-19377.196654939253,-187500.02235174447,50.76081165800234,-187500.02235174447,-187500.02235174447,-187500.02235174447,-187500.02235174447,-187500.02235174447,1730329313.882298,1730329312.621244,5.0
-19404.376376196906,-187500.02235174447,12.829901317346254,-187500.02235174447,-187500.02235174447,-187500.02235174447,-187500.02235174447,-187500.02235174447,1730329313.8863566,1730329312.621244,5.0
-19443.13430108241,-187500.02235174447,-13.120473995265243,-187500.02235174447,-187500.02235174447,-187500.02235174447,-187500.02235174447,-187500.02235174447,1730329313.890154,1730329312.621244,5.0
-19436.74170216819,-187500.02235174447,39.47318070807227,-187500.02235174447,-187500.02235174447,-187500.02235174447,-187500.02235174447,-187500.02235174447,1730329313.8944144,1730329312.621244,5.0
-19379.230663684688,-187500.02235174447,68.82102117789044,-187500.02235174447,-187500.02235174447,-187500.02235174447,-187500.02235174447,-187500.02235174447,1730329313.8991957,1730329312.621244,5.0
-19366.043134456057,-187500.02235174447,8.29249719291892,-187500.02235174447,-187500.02235174447,-187500.02235174447,-187500.02235174447,-187500.02235174447,1730329313.903335,1730329312.621244,5.0
-19434.52887946712,-187500.02235174447,-24.005773544999784,-187500.02235174447,-187500.02235174447,-187500.02235174447,-187500.02235174447,-187500.02235174447,1730329313.9061968,1730329312.621244,5.0
-19437.144033568387,-187500.02235174447,55.96876811608888,-187500.02235174447,-187500.02235174447,-187500.02235174447,-187500.02235174447,-187500.02235174447,1730329313.9104123,1730329312.621244,5.0
-19386.539684121573,-187500.02235174447,74.0736811248876,-187500.02235174447,-187500.02235174447,-187500.02235174447,-187500.02235174447,-187500.02235174447,1730329313.9144323,1730329312.621244,5.0
-19369.84293101346,-187500.02235174447,3.442168646117288,-187500.02235174447,-187500.02235174447,-187500.02235174447,-187500.02235174447,-187500.02235174447,1730329313.918419,1730329312.621244,5.0
-19423.353007239464,-187500.02235174447,-32.231215504552786,-187500.02235174447,-187500.02235174447,-187500.02235174447,-187500.02235174447,-187500.02235174447,1730329313.9224224,1730329312.621244,5.0
-19463.653202492384,-187500.02235174447,4.157424468687114,-187500.02235174447,-187500.02235174447,-187500.02235174447,-187500.02235174447,-187500.02235174447,1730329313.9264183,1730329312.621244,5.0
-19416.55807692505,-187500.02235174447,39.227311519063896,-187500.02235174447,-187500.02235174447,-187500.02235174447,-187500.02235174447,-187500.02235174447,1730329313.931239,1730329312.621244,5.0
-19374.11211420442,-187500.02235174447,47.49745696752751,-187500.02235174447,-187500.02235174447,-187500.02235174447,-187500.02235174447,-187500.02235174447,1730329313.934347,1730329312.621244,5.0
-19420.91666709384,-187500.02235174447,-3.620982601759744,-187500.02235174447,-187500.02235174447,-187500.02235174447,-187500.02235174447,-187500.02235174447,1730329313.9383364,1730329312.621244,5.0
-19440.787367914603,-187500.02235174447,-11.533500138938445,-187500.02235174447,-187500.02235174447,-187500.02235174447,-187500.02235174447,-187500.02235174447,1730329313.9424007,1730329312.621244,5.0
-19347.714704002705,-187500.02235174447,24.29634622291878,-187500.02235174447,-187500.02235174447,-187500.02235174447,-187500.02235174447,-187500.02235174447,1730329313.9464276,1730329312.621244,5.0
-19427.75630089716,-187500.02235174447,-11.10881699428761,-187500.02235174447,-187500.02235174447,-187500.02235174447,-187500.02235174447,-187500.02235174447,1730329313.950302,1730329312.621244,5.0
-19498.09724069801,-187500.02235174447,-36.83567486234604,-187500.02235174447,-187500.02235174447,-187500.02235174447,-187500.02235174447,-187500.02235174447,1730329313.9543664,1730329312.621244,5.0
-19380.59412009646,-187500.02235174447,65.42355602068378,-187500.02235174447,-187500.02235174447,-187500.02235174447,-187500.02235174447,-187500.02235174447,1730329313.9593525,1730329312.621244,5.0
-19392.485248146684,-187500.02235174447,86.12127138629812,-187500.02235174447,-187500.02235174447,-187500.02235174447,-187500.02235174447,-187500.02235174447,1730329313.9628365,1730329312.621244,5.0
-19398.98960578318,-187500.02235174447,46.06694532238786,-187500.02235174447,-187500.02235174447,-187500.02235174447,-187500.02235174447,-187500.02235174447,1730329313.9663122,1730329312.621244,5.0
-19444.497757494184,-187500.02235174447,-36.47804695106112,-187500.02235174447,-187500.02235174447,-187500.02235174447,-187500.02235174447,-187500.02235174447,1730329313.9704728,1730329312.621244,5.0
-19428.717425908737,-187500.02235174447,-11.48879665002783,-187500.02235174447,-187500.02235174447,-187500.02235174447,-187500.02235174447,-187500.02235174447,1730329313.974253,1730329312.621244,5.0
-19413.20531525676,-187500.02235174447,53.77829715946879,-187500.02235174447,-187500.02235174447,-187500.02235174447,-187500.02235174447,-187500.02235174447,1730329313.9783597,1730329312.621244,5.0
-19400.91185580633,-187500.02235174447,53.84535239283471,-187500.02235174447,-187500.02235174447,-187500.02235174447,-187500.02235174447,-187500.02235174447,1730329313.9834182,1730329312.621244,5.0
-19416.535725180594,-187500.02235174447,-18.64135487572609,-187500.02235174447,-187500.02235174447,-187500.02235174447,-187500.02235174447,-187500.02235174447,1730329313.9864757,1730329312.621244,5.0
-19449.75041744118,-187500.02235174447,-35.91925333967845,-187500.02235174447,-187500.02235174447,-187500.02235174447,-187500.02235174447,-187500.02235174447,1730329313.989478,1730329312.621244,5.0
-19423.64357991738,-187500.02235174447,15.668572863170253,-187500.02235174447,-187500.02235174447,-187500.02235174447,-187500.02235174447,-187500.02235174447,1730329313.9944658,1730329312.621244,5.0
-19422.078957805512,-187500.02235174447,26.8891485797344,-187500.02235174447,-187500.02235174447,-187500.02235174447,-187500.02235174447,-187500.02235174447,1730329313.9983215,1730329312.621244,5.0
-19377.30841366153,-187500.02235174447,30.085448036843307,-187500.02235174447,-187500.02235174447,-187500.02235174447,-187500.02235174447,-187500.02235174447,1730329314.0025387,1730329312.621244,5.0
-19415.17226876882,-187500.02235174447,10.035933260432872,-187500.02235174447,-187500.02235174447,-187500.02235174447,-187500.02235174447,-187500.02235174447,1730329314.006284,1730329312.621244,5.0
-19432.22664978822,-187500.02235174447,22.39644794421768,-187500.02235174447,-187500.02235174447,-187500.02235174447,-187500.02235174447,-187500.02235174447,1730329314.0117266,1730329312.621244,5.0
-19388.88661728938,-187500.02235174447,61.601407718826266,-187500.02235174447,-187500.02235174447,-187500.02235174447,-187500.02235174447,-187500.02235174447,1730329314.01446,1730329312.621244,5.0
-19396.21798947072,-187500.02235174447,15.132130996242882,-187500.02235174447,-187500.02235174447,-187500.02235174447,-187500.02235174447,-187500.02235174447,1730329314.0180426,1730329312.621244,5.0
-19437.546364968584,-187500.02235174447,-32.79000911593546,-187500.02235174447,-187500.02235174447,-187500.02235174447,-187500.02235174447,-187500.02235174447,1730329314.022666,1730329312.621244,5.0
-19456.053609377577,-187500.02235174447,-2.9951337570111463,-187500.02235174447,-187500.02235174447,-187500.02235174447,-187500.02235174447,-187500.02235174447,1730329314.0271056,1730329312.621244,5.0
-19399.86132381693,-187500.02235174447,61.10966934080951,-187500.02235174447,-187500.02235174447,-187500.02235174447,-187500.02235174447,-187500.02235174447,1730329314.0310388,1730329312.621244,5.0
-19413.65235014586,-187500.02235174447,34.73461088354718,-187500.02235174447,-187500.02235174447,-187500.02235174447,-187500.02235174447,-187500.02235174447,1730329314.0344412,1730329312.621244,5.0
-19449.169272085343,-187500.02235174447,-28.699639880614267,-187500.02235174447,-187500.02235174447,-187500.02235174447,-187500.02235174447,-187500.02235174447,1730329314.0387108,1730329312.621244,5.0
-19396.665024359827,-187500.02235174447,16.74145659702499,-187500.02235174447,-187500.02235174447,-187500.02235174447,-187500.02235174447,-187500.02235174447,1730329314.042468,1730329312.621244,5.0
-19370.84875951395,-187500.02235174447,50.649052935725805,-187500.02235174447,-187500.02235174447,-187500.02235174447,-187500.02235174447,-187500.02235174447,1730329314.046095,1730329312.621244,5.0
-19386.137352721376,-187500.02235174447,31.560663170893573,-187500.02235174447,-187500.02235174447,-187500.02235174447,-187500.02235174447,-187500.02235174447,1730329314.0504048,1730329312.621244,5.0
-19460.009868146168,-187500.02235174447,-33.438209705139364,-187500.02235174447,-187500.02235174447,-187500.02235174447,-187500.02235174447,-187500.02235174447,1730329314.0544922,1730329312.621244,5.0
-19467.9447374278,-187500.02235174447,-18.79781708691324,-187500.02235174447,-187500.02235174447,-187500.02235174447,-187500.02235174447,-187500.02235174447,1730329314.0586064,1730329312.621244,5.0
-19411.95361756726,-187500.02235174447,55.09705008233191,-187500.02235174447,-187500.02235174447,-187500.02235174447,-187500.02235174447,-187500.02235174447,1730329314.0628796,1730329312.621244,5.0
-19405.22574248621,-187500.02235174447,50.82786689136826,-187500.02235174447,-187500.02235174447,-187500.02235174447,-187500.02235174447,-187500.02235174447,1730329314.0665033,1730329312.621244,5.0
-19471.073981651545,-187500.02235174447,-30.152503270209227,-187500.02235174447,-187500.02235174447,-187500.02235174447,-187500.02235174447,-187500.02235174447,1730329314.0709636,1730329312.621244,5.0
-19455.427760532828,-187500.02235174447,-28.632584647248347,-187500.02235174447,-187500.02235174447,-187500.02235174447,-187500.02235174447,-187500.02235174447,1730329314.073394,1730329312.621244,5.0
-19392.50759989113,-187500.02235174447,49.062079079399005,-187500.02235174447,-187500.02235174447,-187500.02235174447,-187500.02235174447,-187500.02235174447,1730329314.078007,1730329312.621244,5.0
-19377.93426250628,-187500.02235174447,51.856047136312384,-187500.02235174447,-187500.02235174447,-187500.02235174447,-187500.02235174447,-187500.02235174447,1730329314.0824351,1730329312.621244,5.0
-19411.0818995335,-187500.02235174447,-2.5704506123603124,-187500.02235174447,-187500.02235174447,-187500.02235174447,-187500.02235174447,-187500.02235174447,1730329314.086717,1730329312.621244,5.0
-19452.097350608987,-187500.02235174447,-56.75107917202463,-187500.02235174447,-187500.02235174447,-187500.02235174447,-187500.02235174447,-187500.02235174447,1730329314.090525,1730329312.621244,5.0
-19447.4928912512,-187500.02235174447,13.478101906550158,-187500.02235174447,-187500.02235174447,-187500.02235174447,-187500.02235174447,-187500.02235174447,1730329314.0936613,1730329312.621244,5.0
-19422.74951013917,-187500.02235174447,69.08924211135412,-187500.02235174447,-187500.02235174447,-187500.02235174447,-187500.02235174447,-187500.02235174447,1730329314.0977747,1730329312.621244,5.0
-19446.0400278616,-187500.02235174447,16.540290896927225,-187500.02235174447,-187500.02235174447,-187500.02235174447,-187500.02235174447,-187500.02235174447,1730329314.1017745,1730329312.621244,5.0
-19457.1935483448,-187500.02235174447,-46.31281451139623,-187500.02235174447,-187500.02235174447,-187500.02235174447,-187500.02235174447,-187500.02235174447,1730329314.1059673,1730329312.621244,5.0
-19454.377228543428,-187500.02235174447,-11.533500138938445,-187500.02235174447,-187500.02235174447,-187500.02235174447,-187500.02235174447,-187500.02235174447,1730329314.110854,1730329312.621244,5.0
-19417.29568449208,-187500.02235174447,32.25356724900809,-187500.02235174447,-187500.02235174447,-187500.02235174447,-187500.02235174447,-187500.02235174447,1730329314.1145573,1730329312.621244,5.0
-19386.04794574356,-187500.02235174447,29.392543958728787,-187500.02235174447,-187500.02235174447,-187500.02235174447,-187500.02235174447,-187500.02235174447,1730329314.1190417,1730329312.621244,5.0
-19449.14692034089,-187500.02235174447,-27.47029393557238,-187500.02235174447,-187500.02235174447,-187500.02235174447,-187500.02235174447,-187500.02235174447,1730329314.1220214,1730329312.621244,5.0
-19503.260493667185,-187500.02235174447,-33.684078894147746,-187500.02235174447,-187500.02235174447,-187500.02235174447,-187500.02235174447,-187500.02235174447,1730329314.1255672,1730329312.621244,5.0
-19386.78555331058,-187500.02235174447,50.82786689136826,-187500.02235174447,-187500.02235174447,-187500.02235174447,-187500.02235174447,-187500.02235174447,1730329314.1297417,1730329312.621244,5.0
-19344.87603245688,-187500.02235174447,57.64514895023692,-187500.02235174447,-187500.02235174447,-187500.02235174447,-187500.02235174447,-187500.02235174447,1730329314.1337135,1730329312.621244,5.0
-19434.70769342276,-187500.02235174447,-22.798779344413205,-187500.02235174447,-187500.02235174447,-187500.02235174447,-187500.02235174447,-187500.02235174447,1730329314.1389663,1730329312.621244,5.0
-19486.83196149253,-187500.02235174447,-38.13207604075385,-187500.02235174447,-187500.02235174447,-187500.02235174447,-187500.02235174447,-187500.02235174447,1730329314.1426876,1730329312.621244,5.0
-19463.9437751703,-187500.02235174447,3.509223879483209,-187500.02235174447,-187500.02235174447,-187500.02235174447,-187500.02235174447,-187500.02235174447,1730329314.1468546,1730329312.621244,5.0
-19387.389050410875,-187500.02235174447,17.903747308700957,-187500.02235174447,-187500.02235174447,-187500.02235174447,-187500.02235174447,-187500.02235174447,1730329314.149541,1730329312.621244,5.0
-19420.64844616037,-187500.02235174447,-20.340087454329428,-187500.02235174447,-187500.02235174447,-187500.02235174447,-187500.02235174447,-187500.02235174447,1730329314.1541493,1730329312.621244,5.0
-19451.247984319685,-187500.02235174447,-7.420779159161944,-187500.02235174447,-187500.02235174447,-187500.02235174447,-187500.02235174447,-187500.02235174447,1730329314.1576452,1730329312.621244,5.0
-19395.32391969251,-187500.02235174447,68.57515198888207,-187500.02235174447,-187500.02235174447,-187500.02235174447,-187500.02235174447,-187500.02235174447,1730329314.1619437,1730329312.621244,5.0
-19364.25499489963,-187500.02235174447,63.63541646425921,-187500.02235174447,-187500.02235174447,-187500.02235174447,-187500.02235174447,-187500.02235174447,1730329314.1655903,1730329312.621244,5.0
-19389.244245200665,-187500.02235174447,-2.6822093346368474,-187500.02235174447,-187500.02235174447,-187500.02235174447,-187500.02235174447,-187500.02235174447,1730329314.1710804,1730329312.621244,5.0
-19442.866080148942,-187500.02235174447,-25.79391310142435,-187500.02235174447,-187500.02235174447,-187500.02235174447,-187500.02235174447,-187500.02235174447,1730329314.1747124,1730329312.621244,5.0
-19443.2907632936,-187500.02235174447,15.8250350743574,-187500.02235174447,-187500.02235174447,-187500.02235174447,-187500.02235174447,-187500.02235174447,1730329314.1778207,1730329312.621244,5.0
-19379.76710555161,-187500.02235174447,33.99700331652204,-187500.02235174447,-187500.02235174447,-187500.02235174447,-187500.02235174447,-187500.02235174447,1730329314.1816363,1730329312.621244,5.0
-19397.045004015567,-187500.02235174447,-4.626811102248562,-187500.02235174447,-187500.02235174447,-187500.02235174447,-187500.02235174447,-187500.02235174447,1730329314.18593,1730329312.621244,5.0
-19465.59780426,-187500.02235174447,-48.7268029125694,-187500.02235174447,-187500.02235174447,-187500.02235174447,-187500.02235174447,-187500.02235174447,1730329314.18971,1730329312.621244,5.0
-19477.75715324368,-187500.02235174447,0.6258488447485977,-187500.02235174447,-187500.02235174447,-187500.02235174447,-187500.02235174447,-187500.02235174447,1730329314.1943693,1730329312.621244,5.0
-19382.60577709744,-187500.02235174447,50.24672153553028,-187500.02235174447,-187500.02235174447,-187500.02235174447,-187500.02235174447,-187500.02235174447,1730329314.198716,1730329312.621244,5.0
-19339.712779487705,-187500.02235174447,8.985401271033439,-187500.02235174447,-187500.02235174447,-187500.02235174447,-187500.02235174447,-187500.02235174447,1730329314.2019615,1730329312.621244,5.0
-19453.19258608729,-187500.02235174447,-53.97946285956655,-187500.02235174447,-187500.02235174447,-187500.02235174447,-187500.02235174447,-187500.02235174447,1730329314.205948,1730329312.621244,5.0
-19492.10697318399,-187500.02235174447,2.481043634539084,-187500.02235174447,-187500.02235174447,-187500.02235174447,-187500.02235174447,-187500.02235174447,1730329314.210371,1730329312.621244,5.0
-19459.89810942389,-187500.02235174447,38.82498011886837,-187500.02235174447,-187500.02235174447,-187500.02235174447,-187500.02235174447,-187500.02235174447,1730329314.214322,1730329312.621244,5.0
-19377.26371017262,-187500.02235174447,23.178759000153423,-187500.02235174447,-187500.02235174447,-187500.02235174447,-187500.02235174447,-187500.02235174447,1730329314.217944,1730329312.621244,5.0
-19433.88067887791,-187500.02235174447,-23.29051772242996,-187500.02235174447,-187500.02235174447,-187500.02235174447,-187500.02235174447,-187500.02235174447,1730329314.2220547,1730329312.621244,5.0
-19476.974842187745,-187500.02235174447,-1.6540290896927226,-187500.02235174447,-187500.02235174447,-187500.02235174447,-187500.02235174447,-187500.02235174447,1730329314.2267032,1730329312.621244,5.0
-19412.17713501181,-187500.02235174447,37.39446847372872,-187500.02235174447,-187500.02235174447,-187500.02235174447,-187500.02235174447,-187500.02235174447,1730329314.2299657,1730329312.621244,5.0
-19388.81956205601,-187500.02235174447,29.37019221427348,-187500.02235174447,-187500.02235174447,-187500.02235174447,-187500.02235174447,-187500.02235174447,1730329314.2338312,1730329312.621244,5.0
-19428.29274276409,-187500.02235174447,-29.97368931456677,-187500.02235174447,-187500.02235174447,-187500.02235174447,-187500.02235174447,-187500.02235174447,1730329314.2378998,1730329312.621244,5.0
-19440.07211209203,-187500.02235174447,-11.377037927751294,-187500.02235174447,-187500.02235174447,-187500.02235174447,-187500.02235174447,-187500.02235174447,1730329314.2418077,1730329312.621244,5.0
-19409.383166954896,-187500.02235174447,35.51692193948292,-187500.02235174447,-187500.02235174447,-187500.02235174447,-187500.02235174447,-187500.02235174447,1730329314.24617,1730329312.621244,5.0
-19393.69224234727,-187500.02235174447,19.73659035403613,-187500.02235174447,-187500.02235174447,-187500.02235174447,-187500.02235174447,-187500.02235174447,1730329314.2497003,1730329312.621244,5.0
-19458.288783823107,-187500.02235174447,-51.923102369678304,-187500.02235174447,-187500.02235174447,-187500.02235174447,-187500.02235174447,-187500.02235174447,1730329314.254922,1730329312.621244,5.0
-19476.684269509828,-187500.02235174447,-50.44788723562804,-187500.02235174447,-187500.02235174447,-187500.02235174447,-187500.02235174447,-187500.02235174447,1730329314.2577665,1730329312.621244,5.0
-19367.98773622367,-187500.02235174447,39.74140164153596,-187500.02235174447,-187500.02235174447,-187500.02235174447,-187500.02235174447,-187500.02235174447,1730329314.2613032,1730329312.621244,5.0
-19357.88474772987,-187500.02235174447,57.578093716871,-187500.02235174447,-187500.02235174447,-187500.02235174447,-187500.02235174447,-187500.02235174447,1730329314.2658105,1730329312.621244,5.0
-19452.18675758681,-187500.02235174447,-15.780331585446786,-187500.02235174447,-187500.02235174447,-187500.02235174447,-187500.02235174447,-187500.02235174447,1730329314.2702732,1730329312.621244,5.0
-19432.763091655142,-187500.02235174447,-42.133038298253815,-187500.02235174447,-187500.02235174447,-187500.02235174447,-187500.02235174447,-187500.02235174447,1730329314.2737436,1730329312.621244,5.0
-19410.567809411023,-187500.02235174447,52.39248900323975,-187500.02235174447,-187500.02235174447,-187500.02235174447,-187500.02235174447,-187500.02235174447,1730329314.2782404,1730329312.621244,5.0
-19387.81373355553,-187500.02235174447,69.42451827818374,-187500.02235174447,-187500.02235174447,-187500.02235174447,-187500.02235174447,-187500.02235174447,1730329314.2827363,1730329312.621244,5.0
-19378.60481483994,-187500.02235174447,3.3304099238407523,-187500.02235174447,-187500.02235174447,-187500.02235174447,-187500.02235174447,-187500.02235174447,1730329314.2863815,1730329312.621244,5.0
-19438.06045509105,-187500.02235174447,-39.80845687490188,-187500.02235174447,-187500.02235174447,-187500.02235174447,-187500.02235174447,-187500.02235174447,1730329314.2892318,1730329312.621244,5.0
-19447.55994648456,-187500.02235174447,11.757017583491516,-187500.02235174447,-187500.02235174447,-187500.02235174447,-187500.02235174447,-187500.02235174447,1730329314.294322,1730329312.621244,5.0
-19424.761167140143,-187500.02235174447,44.97170984407781,-187500.02235174447,-187500.02235174447,-187500.02235174447,-187500.02235174447,-187500.02235174447,1730329314.297796,1730329312.621244,5.0
-19427.10810030796,-187500.02235174447,-17.747285097513807,-187500.02235174447,-187500.02235174447,-187500.02235174447,-187500.02235174447,-187500.02235174447,1730329314.302363,1730329312.621244,5.0
-19433.768920155635,-187500.02235174447,-33.19234051613099,-187500.02235174447,-187500.02235174447,-187500.02235174447,-187500.02235174447,-187500.02235174447,1730329314.306144,1730329312.621244,5.0
-19422.391882227887,-187500.02235174447,-2.905726779189918,-187500.02235174447,-187500.02235174447,-187500.02235174447,-187500.02235174447,-187500.02235174447,1730329314.3112457,1730329312.621244,5.0
-19404.644597130373,-187500.02235174447,50.514942468993965,-187500.02235174447,-187500.02235174447,-187500.02235174447,-187500.02235174447,-187500.02235174447,1730329314.3138497,1730329312.621244,5.0
-19401.291835462074,-187500.02235174447,29.034916047443875,-187500.02235174447,-187500.02235174447,-187500.02235174447,-187500.02235174447,-187500.02235174447,1730329314.31696,1730329312.621244,5.0
-19445.50358599468,-187500.02235174447,-37.26035800699688,-187500.02235174447,-187500.02235174447,-187500.02235174447,-187500.02235174447,-187500.02235174447,1730329314.3221996,1730329312.621244,5.0
-19488.7989150046,-187500.02235174447,-40.70252665311416,-187500.02235174447,-187500.02235174447,-187500.02235174447,-187500.02235174447,-187500.02235174447,1730329314.3259444,1730329312.621244,5.0
-19445.078902850026,-187500.02235174447,-4.872680291256939,-187500.02235174447,-187500.02235174447,-187500.02235174447,-187500.02235174447,-187500.02235174447,1730329314.3302753,1730329312.621244,5.0
-19356.476587829184,-187500.02235174447,10.684133849636776,-187500.02235174447,-187500.02235174447,-187500.02235174447,-187500.02235174447,-187500.02235174447,1730329314.3338072,1730329312.621244,5.0
-19418.614437414937,-187500.02235174447,-15.355648440795951,-187500.02235174447,-187500.02235174447,-187500.02235174447,-187500.02235174447,-187500.02235174447,1730329314.3382254,1730329312.621244,5.0
-19469.41995256185,-187500.02235174447,-22.038820032932765,-187500.02235174447,-187500.02235174447,-187500.02235174447,-187500.02235174447,-187500.02235174447,1730329314.3407848,1730329312.621244,5.0
-19470.872815951447,-187500.02235174447,23.871663078267943,-187500.02235174447,-187500.02235174447,-187500.02235174447,-187500.02235174447,-187500.02235174447,1730329314.345009,1730329312.621244,5.0
-19413.00414955665,-187500.02235174447,16.786160085935602,-187500.02235174447,-187500.02235174447,-187500.02235174447,-187500.02235174447,-187500.02235174447,1730329314.349834,1730329312.621244,5.0
-19402.923512807312,-187500.02235174447,-23.581090400348952,-187500.02235174447,-187500.02235174447,-187500.02235174447,-187500.02235174447,-187500.02235174447,1730329314.354309,1730329312.621244,5.0
-19459.406371045872,-187500.02235174447,-24.51986366747185,-187500.02235174447,-187500.02235174447,-187500.02235174447,-187500.02235174447,-187500.02235174447,1730329314.3578544,1730329312.621244,5.0
-19419.97789382671,-187500.02235174447,29.59370965882655,-187500.02235174447,-187500.02235174447,-187500.02235174447,-187500.02235174447,-187500.02235174447,1730329314.362229,1730329312.621244,5.0
-19383.812771298024,-187500.02235174447,29.77252361446901,-187500.02235174447,-187500.02235174447,-187500.02235174447,-187500.02235174447,-187500.02235174447,1730329314.3658288,1730329312.621244,5.0
-19414.74758562417,-187500.02235174447,-25.48098867905005,-187500.02235174447,-187500.02235174447,-187500.02235174447,-187500.02235174447,-187500.02235174447,1730329314.3692553,1730329312.621244,5.0
-19459.54048151261,-187500.02235174447,-36.14277078423152,-187500.02235174447,-187500.02235174447,-187500.02235174447,-187500.02235174447,-187500.02235174447,1730329314.3728323,1730329312.621244,5.0
-19483.926234713344,-187500.02235174447,-4.9397355246228605,-187500.02235174447,-187500.02235174447,-187500.02235174447,-187500.02235174447,-187500.02235174447,1730329314.3782456,1730329312.621244,5.0
-19409.561980910537,-187500.02235174447,32.34297422682932,-187500.02235174447,-187500.02235174447,-187500.02235174447,-187500.02235174447,-187500.02235174447,1730329314.3820105,1730329312.621244,5.0
-19367.183073423275,-187500.02235174447,-3.129244223742989,-187500.02235174447,-187500.02235174447,-187500.02235174447,-187500.02235174447,-187500.02235174447,1730329314.3862524,1730329312.621244,5.0
-19469.107028139475,-187500.02235174447,-42.602424931815264,-187500.02235174447,-187500.02235174447,-187500.02235174447,-187500.02235174447,-187500.02235174447,1730329314.39002,1730329312.621244,5.0
-19498.07488895356,-187500.02235174447,-12.40521817269542,-187500.02235174447,-187500.02235174447,-187500.02235174447,-187500.02235174447,-187500.02235174447,1730329314.3930604,1730329312.621244,5.0
-19428.29274276409,-187500.02235174447,31.71712538208072,-187500.02235174447,-187500.02235174447,-187500.02235174447,-187500.02235174447,-187500.02235174447,1730329314.3972447,1730329312.621244,5.0
-19396.195637726265,-187500.02235174447,-8.851290804301597,-187500.02235174447,-187500.02235174447,-187500.02235174447,-187500.02235174447,-187500.02235174447,1730329314.4008832,1730329312.621244,5.0
-19430.05853057605,-187500.02235174447,-30.19720675911984,-187500.02235174447,-187500.02235174447,-187500.02235174447,-187500.02235174447,-187500.02235174447,1730329314.4061496,1730329312.621244,5.0
-19457.68528672281,-187500.02235174447,-14.707447851592049,-187500.02235174447,-187500.02235174447,-187500.02235174447,-187500.02235174447,-187500.02235174447,1730329314.410617,1730329312.621244,5.0
-19406.20921924224,-187500.02235174447,35.71808763958069,-187500.02235174447,-187500.02235174447,-187500.02235174447,-187500.02235174447,-187500.02235174447,1730329314.41427,1730329312.621244,5.0
-19360.70106753124,-187500.02235174447,64.2389135645525,-187500.02235174447,-187500.02235174447,-187500.02235174447,-187500.02235174447,-187500.02235174447,1730329314.4186735,1730329312.621244,5.0
-19416.64748390287,-187500.02235174447,-15.422703674161871,-187500.02235174447,-187500.02235174447,-187500.02235174447,-187500.02235174447,-187500.02235174447,1730329314.4225247,1730329312.621244,5.0
-19451.739722697705,-187500.02235174447,-13.835729817835071,-187500.02235174447,-187500.02235174447,-187500.02235174447,-187500.02235174447,-187500.02235174447,1730329314.4250932,1730329312.621244,5.0
-19404.59989364146,-187500.02235174447,27.738514869036063,-187500.02235174447,-187500.02235174447,-187500.02235174447,-187500.02235174447,-187500.02235174447,1730329314.42928,1730329312.621244,5.0
-19384.93035852079,-187500.02235174447,16.629697874748455,-187500.02235174447,-187500.02235174447,-187500.02235174447,-187500.02235174447,-187500.02235174447,1730329314.4329736,1730329312.621244,5.0
-19423.241248517188,-187500.02235174447,-23.625793889259565,-187500.02235174447,-187500.02235174447,-187500.02235174447,-187500.02235174447,-187500.02235174447,1730329314.4383032,1730329312.621244,5.0
-19465.821321704545,-187500.02235174447,-22.061171777388072,-187500.02235174447,-187500.02235174447,-187500.02235174447,-187500.02235174447,-187500.02235174447,1730329314.442165,1730329312.621244,5.0
-19443.9389638828,-187500.02235174447,11.824072816857436,-187500.02235174447,-187500.02235174447,-187500.02235174447,-187500.02235174447,-187500.02235174447,1730329314.4452095,1730329312.621244,5.0
-19389.1771899673,-187500.02235174447,38.31088999639631,-187500.02235174447,-187500.02235174447,-187500.02235174447,-187500.02235174447,-187500.02235174447,1730329314.4490683,1730329312.621244,5.0
-19424.51529795114,-187500.02235174447,-14.975668785055731,-187500.02235174447,-187500.02235174447,-187500.02235174447,-187500.02235174447,-187500.02235174447,1730329314.4531431,1730329312.621244,5.0
-19476.393696831907,-187500.02235174447,-40.680174908658856,-187500.02235174447,-187500.02235174447,-187500.02235174447,-187500.02235174447,-187500.02235174447,1730329314.4570596,1730329312.621244,5.0
-19454.779559943625,-187500.02235174447,9.655953604692652,-187500.02235174447,-187500.02235174447,-187500.02235174447,-187500.02235174447,-187500.02235174447,1730329314.461335,1730329312.621244,5.0
-19386.31616667702,-187500.02235174447,25.905671823700885,-187500.02235174447,-187500.02235174447,-187500.02235174447,-187500.02235174447,-187500.02235174447,1730329314.4659927,1730329312.621244,5.0
-19410.679568133302,-187500.02235174447,-30.308965481396378,-187500.02235174447,-187500.02235174447,-187500.02235174447,-187500.02235174447,-187500.02235174447,1730329314.4702663,1730329312.621244,5.0
-19454.109007609964,-187500.02235174447,-34.53344518344941,-187500.02235174447,-187500.02235174447,-187500.02235174447,-187500.02235174447,-187500.02235174447,1730329314.4731464,1730329312.621244,5.0
-19460.36749605745,-187500.02235174447,9.074808248854668,-187500.02235174447,-187500.02235174447,-187500.02235174447,-187500.02235174447,-187500.02235174447,1730329314.4771764,1730329312.621244,5.0
-19421.341350238486,-187500.02235174447,23.446979933617108,-187500.02235174447,-187500.02235174447,-187500.02235174447,-187500.02235174447,-187500.02235174447,1730329314.481088,1730329312.621244,5.0
-19407.66208263184,-187500.02235174447,-0.9834767560335108,-187500.02235174447,-187500.02235174447,-187500.02235174447,-187500.02235174447,-187500.02235174447,1730329314.4853663,1730329312.621244,5.0
-19472.1468653854,-187500.02235174447,-58.36040477280674,-187500.02235174447,-187500.02235174447,-187500.02235174447,-187500.02235174447,-187500.02235174447,1730329314.4894528,1730329312.621244,5.0
-19484.395621346903,-187500.02235174447,-25.525692167960667,-187500.02235174447,-187500.02235174447,-187500.02235174447,-187500.02235174447,-187500.02235174447,1730329314.4942017,1730329312.621244,5.0
-19406.99153029818,-187500.02235174447,28.811398602890804,-187500.02235174447,-187500.02235174447,-187500.02235174447,-187500.02235174447,-187500.02235174447,1730329314.49811,1730329312.621244,5.0
-19391.12179173491,-187500.02235174447,-8.761883826480368,-187500.02235174447,-187500.02235174447,-187500.02235174447,-187500.02235174447,-187500.02235174447,1730329314.5013733,1730329312.621244,5.0
-19427.488079963696,-187500.02235174447,-61.04261410744359,-187500.02235174447,-187500.02235174447,-187500.02235174447,-187500.02235174447,-187500.02235174447,1730329314.505146,1730329312.621244,5.0
-19485.602615547494,-187500.02235174447,-50.53729421344927,-187500.02235174447,-187500.02235174447,-187500.02235174447,-187500.02235174447,-187500.02235174447,1730329314.5092,1730329312.621244,5.0
-19390.69710859026,-187500.02235174447,34.91342483918963,-187500.02235174447,-187500.02235174447,-187500.02235174447,-187500.02235174447,-187500.02235174447,1730329314.5133266,1730329312.621244,5.0
-19388.64074810037,-187500.02235174447,17.970802542066878,-187500.02235174447,-187500.02235174447,-187500.02235174447,-187500.02235174447,-187500.02235174447,1730329314.5172272,1730329312.621244,5.0
-19451.672667464336,-187500.02235174447,-37.12624754026504,-187500.02235174447,-187500.02235174447,-187500.02235174447,-187500.02235174447,-187500.02235174447,1730329314.521478,1730329312.621244,5.0
-19446.64352496189,-187500.02235174447,15.333296696340645,-187500.02235174447,-187500.02235174447,-187500.02235174447,-187500.02235174447,-187500.02235174447,1730329314.526858,1730329312.621244,5.0
-19403.25878897414,-187500.02235174447,50.82786689136826,-187500.02235174447,-187500.02235174447,-187500.02235174447,-187500.02235174447,-187500.02235174447,1730329314.5295098,1730329312.621244,5.0
-19361.41632335381,-187500.02235174447,36.03101206195498,-187500.02235174447,-187500.02235174447,-187500.02235174447,-187500.02235174447,-187500.02235174447,1730329314.5331097,1730329312.621244,5.0
-19412.959446067744,-187500.02235174447,-34.53344518344941,-187500.02235174447,-187500.02235174447,-187500.02235174447,-187500.02235174447,-187500.02235174447,1730329314.5373318,1730329312.621244,5.0
-19440.47444349223,-187500.02235174447,-36.4109917176952,-187500.02235174447,-187500.02235174447,-187500.02235174447,-187500.02235174447,-187500.02235174447,1730329314.5412064,1730329312.621244,5.0
-19418.636789159395,-187500.02235174447,25.235119490041672,-187500.02235174447,-187500.02235174447,-187500.02235174447,-187500.02235174447,-187500.02235174447,1730329314.5453212,1730329312.621244,5.0
-19389.423059156303,-187500.02235174447,12.829901317346254,-187500.02235174447,-187500.02235174447,-187500.02235174447,-187500.02235174447,-187500.02235174447,1730329314.549156,1730329312.621244,5.0
-19426.54930669657,-187500.02235174447,-33.371154471773444,-187500.02235174447,-187500.02235174447,-187500.02235174447,-187500.02235174447,-187500.02235174447,1730329314.554181,1730329312.621244,5.0
-19461.261565835663,-187500.02235174447,-21.61413688828193,-187500.02235174447,-187500.02235174447,-187500.02235174447,-187500.02235174447,-187500.02235174447,1730329314.5571127,1730329312.621244,5.0
-19457.350010555987,-187500.02235174447,-0.7376075670251331,-187500.02235174447,-187500.02235174447,-187500.02235174447,-187500.02235174447,-187500.02235174447,1730329314.5615704,1730329312.621244,5.0
-19409.27140823262,-187500.02235174447,26.687982879636632,-187500.02235174447,-187500.02235174447,-187500.02235174447,-187500.02235174447,-187500.02235174447,1730329314.5652144,1730329312.621244,5.0
-19374.536797349072,-187500.02235174447,5.207956458086546,-187500.02235174447,-187500.02235174447,-187500.02235174447,-187500.02235174447,-187500.02235174447,1730329314.5696125,1730329312.621244,5.0
-19444.60951621646,-187500.02235174447,-39.2496632635192,-187500.02235174447,-187500.02235174447,-187500.02235174447,-187500.02235174447,-187500.02235174447,1730329314.5731046,1730329312.621244,5.0
-19465.933080426825,-187500.02235174447,-15.556814140893716,-187500.02235174447,-187500.02235174447,-187500.02235174447,-187500.02235174447,-187500.02235174447,1730329314.5776632,1730329312.621244,5.0
-19406.18686749779,-187500.02235174447,29.347840469818173,-187500.02235174447,-187500.02235174447,-187500.02235174447,-187500.02235174447,-187500.02235174447,1730329314.58122,1730329312.621244,5.0
-19396.9779487822,-187500.02235174447,1.072883733854739,-187500.02235174447,-187500.02235174447,-187500.02235174447,-187500.02235174447,-187500.02235174447,1730329314.58425,1730329312.621244,5.0
-19453.170234342844,-187500.02235174447,-62.27196005248548,-187500.02235174447,-187500.02235174447,-187500.02235174447,-187500.02235174447,-187500.02235174447,1730329314.5894349,1730329312.621244,5.0
-19446.62117321744,-187500.02235174447,-21.368267699273552,-187500.02235174447,-187500.02235174447,-187500.02235174447,-187500.02235174447,-187500.02235174447,1730329314.5931392,1730329312.621244,5.0
-19408.9808355547,-187500.02235174447,32.94647132712261,-187500.02235174447,-187500.02235174447,-187500.02235174447,-187500.02235174447,-187500.02235174447,1730329314.5974169,1730329312.621244,5.0
-19402.364719195928,-187500.02235174447,13.187529228631169,-187500.02235174447,-187500.02235174447,-187500.02235174447,-187500.02235174447,-187500.02235174447,1730329314.6019473,1730329312.621244,5.0
-19407.706786120747,-187500.02235174447,-40.32254699737394,-187500.02235174447,-187500.02235174447,-187500.02235174447,-187500.02235174447,-187500.02235174447,1730329314.6056185,1730329312.621244,5.0
-19433.858327133457,-187500.02235174447,-33.99700331652204,-187500.02235174447,-187500.02235174447,-187500.02235174447,-187500.02235174447,-187500.02235174447,1730329314.60936,1730329312.621244,5.0
-19421.81073687205,-187500.02235174447,15.981497285544547,-187500.02235174447,-187500.02235174447,-187500.02235174447,-187500.02235174447,-187500.02235174447,1730329314.6126893,1730329312.621244,5.0
-19377.241358428164,-187500.02235174447,21.032991532443948,-187500.02235174447,-187500.02235174447,-187500.02235174447,-187500.02235174447,-187500.02235174447,1730329314.6172533,1730329312.621244,5.0
-19426.07992006301,-187500.02235174447,-55.7005471826252,-187500.02235174447,-187500.02235174447,-187500.02235174447,-187500.02235174447,-187500.02235174447,1730329314.6217494,1730329312.621244,5.0
-19448.52107149614,-187500.02235174447,-51.11843956928725,-187500.02235174447,-187500.02235174447,-187500.02235174447,-187500.02235174447,-187500.02235174447,1730329314.6253183,1730329312.621244,5.0
-19410.74662336667,-187500.02235174447,15.400351929706568,-187500.02235174447,-187500.02235174447,-187500.02235174447,-187500.02235174447,-187500.02235174447,1730329314.6297677,1730329312.621244,5.0
-19380.996451496656,-187500.02235174447,34.30992773889634,-187500.02235174447,-187500.02235174447,-187500.02235174447,-187500.02235174447,-187500.02235174447,1730329314.633453,1730329312.621244,5.0
-19416.669835647328,-187500.02235174447,-17.993154286522184,-187500.02235174447,-187500.02235174447,-187500.02235174447,-187500.02235174447,-187500.02235174447,1730329314.637622,1730329312.621244,5.0
-19457.48412102272,-187500.02235174447,-26.46446543508356,-187500.02235174447,-187500.02235174447,-187500.02235174447,-187500.02235174447,-187500.02235174447,1730329314.6403434,1730329312.621244,5.0
-19426.32578925202,-187500.02235174447,26.64327939072602,-187500.02235174447,-187500.02235174447,-187500.02235174447,-187500.02235174447,-187500.02235174447,1730329314.6444013,1730329312.621244,5.0
-19418.27916124811,-187500.02235174447,-2.123415723254171,-187500.02235174447,-187500.02235174447,-187500.02235174447,-187500.02235174447,-187500.02235174447,1730329314.6492617,1730329312.621244,5.0
-19406.946826809268,-187500.02235174447,-2.0563604898882497,-187500.02235174447,-187500.02235174447,-187500.02235174447,-187500.02235174447,-187500.02235174447,1730329314.653474,1730329312.621244,5.0
-19441.70378943727,-187500.02235174447,-8.963049526578132,-187500.02235174447,-187500.02235174447,-187500.02235174447,-187500.02235174447,-187500.02235174447,1730329314.6573029,1730329312.621244,5.0
-19422.682454905804,-187500.02235174447,25.771561356969045,-187500.02235174447,-187500.02235174447,-187500.02235174447,-187500.02235174447,-187500.02235174447,1730329314.6616533,1730329312.621244,5.0
-19358.979983208177,-187500.02235174447,53.51007622600511,-187500.02235174447,-187500.02235174447,-187500.02235174447,-187500.02235174447,-187500.02235174447,1730329314.665378,1730329312.621244,5.0
-19390.339480678973,-187500.02235174447,-17.523767652960736,-187500.02235174447,-187500.02235174447,-187500.02235174447,-187500.02235174447,-187500.02235174447,1730329314.6688368,1730329312.621244,5.0
-19471.58807177401,-187500.02235174447,-63.3001402974296,-187500.02235174447,-187500.02235174447,-187500.02235174447,-187500.02235174447,-187500.02235174447,1730329314.672609,1730329312.621244,5.0
-19452.47733026473,-187500.02235174447,0.1341104667318423,-187500.02235174447,-187500.02235174447,-187500.02235174447,-187500.02235174447,-187500.02235174447,1730329314.6776807,1730329312.621244,5.0
-19397.447335415764,-187500.02235174447,52.973634359077735,-187500.02235174447,-187500.02235174447,-187500.02235174447,-187500.02235174447,-187500.02235174447,1730329314.6813955,1730329312.621244,5.0
-19397.98377728269,-187500.02235174447,2.548098867905005,-187500.02235174447,-187500.02235174447,-187500.02235174447,-187500.02235174447,-187500.02235174447,1730329314.68601,1730329312.621244,5.0
-19414.41230945734,-187500.02235174447,-42.22244527607504,-187500.02235174447,-187500.02235174447,-187500.02235174447,-187500.02235174447,-187500.02235174447,1730329314.6894283,1730329312.621244,5.0
-19442.2402313042,-187500.02235174447,-11.019410016466384,-187500.02235174447,-187500.02235174447,-187500.02235174447,-187500.02235174447,-187500.02235174447,1730329314.6935956,1730329312.621244,5.0
-19425.69994040727,-187500.02235174447,25.995078801522112,-187500.02235174447,-187500.02235174447,-187500.02235174447,-187500.02235174447,-187500.02235174447,1730329314.6965573,1730329312.621244,5.0
-19406.768012853627,-187500.02235174447,6.549061125404969,-187500.02235174447,-187500.02235174447,-187500.02235174447,-187500.02235174447,-187500.02235174447,1730329314.7005224,1730329312.621244,5.0
-19437.50166147968,-187500.02235174447,-50.269073279985584,-187500.02235174447,-187500.02235174447,-187500.02235174447,-187500.02235174447,-187500.02235174447,1730329314.7059505,1730329312.621244,5.0
-19424.44824271777,-187500.02235174447,-15.243889718519418,-187500.02235174447,-187500.02235174447,-187500.02235174447,-187500.02235174447,-187500.02235174447,1730329314.7096815,1730329312.621244,5.0
-19399.526047650103,-187500.02235174447,30.152503270209227,-187500.02235174447,-187500.02235174447,-187500.02235174447,-187500.02235174447,-187500.02235174447,1730329314.713416,1730329312.621244,5.0
-19388.774858567103,-187500.02235174447,13.008715272988711,-187500.02235174447,-187500.02235174447,-187500.02235174447,-187500.02235174447,-187500.02235174447,1730329314.7164056,1730329312.621244,5.0
-19445.436530761308,-187500.02235174447,-88.13292838727575,-187500.02235174447,-187500.02235174447,-187500.02235174447,-187500.02235174447,-187500.02235174447,1730329314.720657,1730329312.621244,5.0
-19488.351880115497,-187500.02235174447,-82.50028878453837,-187500.02235174447,-187500.02235174447,-187500.02235174447,-187500.02235174447,-187500.02235174447,1730329314.7244968,1730329312.621244,5.0
-19418.860306603947,-187500.02235174447,39.62964291925943,-187500.02235174447,-187500.02235174447,-187500.02235174447,-187500.02235174447,-187500.02235174447,1730329314.7286956,1730329312.621244,5.0
-19352.095645915942,-187500.02235174447,27.671459635670143,-187500.02235174447,-187500.02235174447,-187500.02235174447,-187500.02235174447,-187500.02235174447,1730329314.7334003,1730329312.621244,5.0
-19419.776728126613,-187500.02235174447,-48.19036104564203,-187500.02235174447,-187500.02235174447,-187500.02235174447,-187500.02235174447,-187500.02235174447,1730329314.7377205,1730329312.621244,5.0
-19446.598821472984,-187500.02235174447,-63.68011995316982,-187500.02235174447,-187500.02235174447,-187500.02235174447,-187500.02235174447,-187500.02235174447,1730329314.7414672,1730329312.621244,5.0
-19410.634864644395,-187500.02235174447,18.86487232027916,-187500.02235174447,-187500.02235174447,-187500.02235174447,-187500.02235174447,-187500.02235174447,1730329314.7445483,1730329312.621244,5.0
-19403.95169305225,-187500.02235174447,27.26912823547461,-187500.02235174447,-187500.02235174447,-187500.02235174447,-187500.02235174447,-187500.02235174447,1730329314.7484615,1730329312.621244,5.0
-19415.17226876882,-187500.02235174447,-40.03197431945495,-187500.02235174447,-187500.02235174447,-187500.02235174447,-187500.02235174447,-187500.02235174447,1730329314.7524338,1730329312.621244,5.0
-19486.161409158874,-187500.02235174447,-70.11742235629825,-187500.02235174447,-187500.02235174447,-187500.02235174447,-187500.02235174447,-187500.02235174447,1730329314.7564497,1730329312.621244,5.0
-19464.18964435931,-187500.02235174447,-32.588843415837694,-187500.02235174447,-187500.02235174447,-187500.02235174447,-187500.02235174447,-187500.02235174447,1730329314.760918,1730329312.621244,5.0
-19379.387125895875,-187500.02235174447,28.1631980136869,-187500.02235174447,-187500.02235174447,-187500.02235174447,-187500.02235174447,-187500.02235174447,1730329314.765434,1730329312.621244,5.0
-19375.9226055053,-187500.02235174447,-7.756055325991551,-187500.02235174447,-187500.02235174447,-187500.02235174447,-187500.02235174447,-187500.02235174447,1730329314.7697375,1730329312.621244,5.0
-19454.488987265708,-187500.02235174447,-59.74621292903578,-187500.02235174447,-187500.02235174447,-187500.02235174447,-187500.02235174447,-187500.02235174447,1730329314.7726772,1730329312.621244,5.0
-19511.9553222603,-187500.02235174447,-61.73551818555811,-187500.02235174447,-187500.02235174447,-187500.02235174447,-187500.02235174447,-187500.02235174447,1730329314.776691,1730329312.621244,5.0
-19412.825335601014,-187500.02235174447,12.47227340606134,-187500.02235174447,-187500.02235174447,-187500.02235174447,-187500.02235174447,-187500.02235174447,1730329314.7807992,1730329312.621244,5.0
-19353.392047094352,-187500.02235174447,10.57237512736024,-187500.02235174447,-187500.02235174447,-187500.02235174447,-187500.02235174447,-187500.02235174447,1730329314.7847073,1730329312.621244,5.0
-19435.49000447869,-187500.02235174447,-57.04165184994363,-187500.02235174447,-187500.02235174447,-187500.02235174447,-187500.02235174447,-187500.02235174447,1730329314.7889786,1730329312.621244,5.0
-19449.683362207816,-187500.02235174447,-46.2010557891197,-187500.02235174447,-187500.02235174447,-187500.02235174447,-187500.02235174447,-187500.02235174447,1730329314.7937813,1730329312.621244,5.0
-19380.54941660755,-187500.02235174447,20.2506804765082,-187500.02235174447,-187500.02235174447,-187500.02235174447,-187500.02235174447,-187500.02235174447,1730329314.797804,1730329312.621244,5.0
-19367.40659086783,-187500.02235174447,2.369284912262549,-187500.02235174447,-187500.02235174447,-187500.02235174447,-187500.02235174447,-187500.02235174447,1730329314.800564,1730329312.621244,5.0
-19432.584277699505,-187500.02235174447,-49.71027966860291,-187500.02235174447,-187500.02235174447,-187500.02235174447,-187500.02235174447,-187500.02235174447,1730329314.8045871,1730329312.621244,5.0
-19482.406316090382,-187500.02235174447,-44.32350925487391,-187500.02235174447,-187500.02235174447,-187500.02235174447,-187500.02235174447,-187500.02235174447,1730329314.8085268,1730329312.621244,5.0
-19446.33060053952,-187500.02235174447,-5.47617739155023,-187500.02235174447,-187500.02235174447,-187500.02235174447,-187500.02235174447,-187500.02235174447,1730329314.8126428,1730329312.621244,5.0
-19435.2888387786,-187500.02235174447,-27.58205265784892,-187500.02235174447,-187500.02235174447,-187500.02235174447,-187500.02235174447,-187500.02235174447,1730329314.8165948,1730329312.621244,5.0
-19470.984574673723,-187500.02235174447,-101.23105063808568,-187500.02235174447,-187500.02235174447,-187500.02235174447,-187500.02235174447,-187500.02235174447,1730329314.821593,1730329312.621244,5.0
-19413.965274568232,-187500.02235174447,-40.45665746410578,-187500.02235174447,-187500.02235174447,-187500.02235174447,-187500.02235174447,-187500.02235174447,1730329314.82464,1730329312.621244,5.0
-19403.594065140973,-187500.02235174447,30.97951781505559,-187500.02235174447,-187500.02235174447,-187500.02235174447,-187500.02235174447,-187500.02235174447,1730329314.8276367,1730329312.621244,5.0
-19421.69897814977,-187500.02235174447,9.700657093603263,-187500.02235174447,-187500.02235174447,-187500.02235174447,-187500.02235174447,-187500.02235174447,1730329314.8326268,1730329312.621244,5.0
-19445.88356565041,-187500.02235174447,-70.38564328976194,-187500.02235174447,-187500.02235174447,-187500.02235174447,-187500.02235174447,-187500.02235174447,1730329314.8367195,1730329312.621244,5.0
-19456.1430163554,-187500.02235174447,-71.72674795708036,-187500.02235174447,-187500.02235174447,-187500.02235174447,-187500.02235174447,-187500.02235174447,1730329314.8406048,1730329312.621244,5.0
-19438.66395219135,-187500.02235174447,-15.802683329902091,-187500.02235174447,-187500.02235174447,-187500.02235174447,-187500.02235174447,-187500.02235174447,1730329314.8446915,1730329312.621244,5.0
-19408.489097176684,-187500.02235174447,14.439226918128362,-187500.02235174447,-187500.02235174447,-187500.02235174447,-187500.02235174447,-187500.02235174447,1730329314.850314,1730329312.621244,5.0
-19434.26065853365,-187500.02235174447,-34.13111378325389,-187500.02235174447,-187500.02235174447,-187500.02235174447,-187500.02235174447,-187500.02235174447,1730329314.8528557,1730329312.621244,5.0
-19468.324717083546,-187500.02235174447,-95.30783835742932,-187500.02235174447,-187500.02235174447,-187500.02235174447,-187500.02235174447,-187500.02235174447,1730329314.8565938,1730329312.621244,5.0
-19491.414069105875,-187500.02235174447,-66.27292230998545,-187500.02235174447,-187500.02235174447,-187500.02235174447,-187500.02235174447,-187500.02235174447,1730329314.8610244,1730329312.621244,5.0
-19439.22274580273,-187500.02235174447,14.819206573868582,-187500.02235174447,-187500.02235174447,-187500.02235174447,-187500.02235174447,-187500.02235174447,1730329314.864574,1730329312.621244,5.0
-19453.438455276308,-187500.02235174447,-32.38767771573993,-187500.02235174447,-187500.02235174447,-187500.02235174447,-187500.02235174447,-187500.02235174447,1730329314.869035,1730329312.621244,5.0
-19456.210071588765,-187500.02235174447,-82.07560563988753,-187500.02235174447,-187500.02235174447,-187500.02235174447,-187500.02235174447,-187500.02235174447,1730329314.872727,1730329312.621244,5.0
-19442.016713859644,-187500.02235174447,-10.773540827458003,-187500.02235174447,-187500.02235174447,-187500.02235174447,-187500.02235174447,-187500.02235174447,1730329314.8782444,1730329312.621244,5.0
-19433.5901062,-187500.02235174447,15.936793796633935,-187500.02235174447,-187500.02235174447,-187500.02235174447,-187500.02235174447,-187500.02235174447,1730329314.8808453,1730329312.621244,5.0
-19412.490059434185,-187500.02235174447,-26.084485779343343,-187500.02235174447,-187500.02235174447,-187500.02235174447,-187500.02235174447,-187500.02235174447,1730329314.8840098,1730329312.621244,5.0
-19426.594010185483,-187500.02235174447,-61.22142806308605,-187500.02235174447,-187500.02235174447,-187500.02235174447,-187500.02235174447,-187500.02235174447,1730329314.8890164,1730329312.621244,5.0
-19479.9476242003,-187500.02235174447,-37.90855859620078,-187500.02235174447,-187500.02235174447,-187500.02235174447,-187500.02235174447,-187500.02235174447,1730329314.8930757,1730329312.621244,5.0
-19431.26552477664,-187500.02235174447,21.34591595481825,-187500.02235174447,-187500.02235174447,-187500.02235174447,-187500.02235174447,-187500.02235174447,1730329314.8968816,1730329312.621244,5.0
-19404.644597130373,-187500.02235174447,-9.275973948952432,-187500.02235174447,-187500.02235174447,-187500.02235174447,-187500.02235174447,-187500.02235174447,1730329314.9007225,1730329312.621244,5.0
-19402.387070940385,-187500.02235174447,-45.41874473318395,-187500.02235174447,-187500.02235174447,-187500.02235174447,-187500.02235174447,-187500.02235174447,1730329314.9049203,1730329312.621244,5.0
-19457.975859400733,-187500.02235174447,-30.487779437038835,-187500.02235174447,-187500.02235174447,-187500.02235174447,-187500.02235174447,-187500.02235174447,1730329314.908816,1730329312.621244,5.0
-19424.112966550943,-187500.02235174447,17.94845079761157,-187500.02235174447,-187500.02235174447,-187500.02235174447,-187500.02235174447,-187500.02235174447,1730329314.9119987,1730329312.621244,5.0
-19382.98575675318,-187500.02235174447,14.707447851592049,-187500.02235174447,-187500.02235174447,-187500.02235174447,-187500.02235174447,-187500.02235174447,1730329314.9169366,1730329312.621244,5.0
-19406.14216400888,-187500.02235174447,-32.72295388256954,-187500.02235174447,-187500.02235174447,-187500.02235174447,-187500.02235174447,-187500.02235174447,1730329314.9209769,1730329312.621244,5.0
-19466.35776357148,-187500.02235174447,-69.80449793392395,-187500.02235174447,-187500.02235174447,-187500.02235174447,-187500.02235174447,-187500.02235174447,1730329314.9248445,1730329312.621244,5.0
-19435.333542267508,-187500.02235174447,-28.364363713784662,-187500.02235174447,-187500.02235174447,-187500.02235174447,-187500.02235174447,-187500.02235174447,1730329314.9292,1730329312.621244,5.0
-19390.54064637907,-187500.02235174447,22.821131088868512,-187500.02235174447,-187500.02235174447,-187500.02235174447,-187500.02235174447,-187500.02235174447,1730329314.9328296,1730329312.621244,5.0
-19420.089652548988,-187500.02235174447,-23.51403516698303,-187500.02235174447,-187500.02235174447,-187500.02235174447,-187500.02235174447,-187500.02235174447,1730329314.936999,1730329312.621244,5.0
-19466.38011531593,-187500.02235174447,-56.594616960837484,-187500.02235174447,-187500.02235174447,-187500.02235174447,-187500.02235174447,-187500.02235174447,1730329314.9397156,1730329312.621244,5.0
-19457.75234195618,-187500.02235174447,-29.817227103379626,-187500.02235174447,-187500.02235174447,-187500.02235174447,-187500.02235174447,-187500.02235174447,1730329314.9448783,1730329312.621244,5.0
-19421.27429500512,-187500.02235174447,4.760921568980405,-187500.02235174447,-187500.02235174447,-187500.02235174447,-187500.02235174447,-187500.02235174447,1730329314.9488575,1730329312.621244,5.0
-19439.915649880844,-187500.02235174447,-40.54606444192701,-187500.02235174447,-187500.02235174447,-187500.02235174447,-187500.02235174447,-187500.02235174447,1730329314.953089,1730329312.621244,5.0
-19482.2498538792,-187500.02235174447,-76.30885557041832,-187500.02235174447,-187500.02235174447,-187500.02235174447,-187500.02235174447,-187500.02235174447,1730329314.956767,1730329312.621244,5.0
-19443.0895975935,-187500.02235174447,6.39259891421782,-187500.02235174447,-187500.02235174447,-187500.02235174447,-187500.02235174447,-187500.02235174447,1730329314.9609993,1730329312.621244,5.0
-19420.961370582747,-187500.02235174447,50.13496281325374,-187500.02235174447,-187500.02235174447,-187500.02235174447,-187500.02235174447,-187500.02235174447,1730329314.964078,1730329312.621244,5.0
-19435.042969589587,-187500.02235174447,-18.0378577754328,-187500.02235174447,-187500.02235174447,-187500.02235174447,-187500.02235174447,-187500.02235174447,1730329314.968037,1730329312.621244,5.0
-19452.164405842355,-187500.02235174447,-89.2281638655858,-187500.02235174447,-187500.02235174447,-187500.02235174447,-187500.02235174447,-187500.02235174447,1730329314.972165,1730329312.621244,5.0
-19469.48700779522,-187500.02235174447,-42.91534935418956,-187500.02235174447,-187500.02235174447,-187500.02235174447,-187500.02235174447,-187500.02235174447,1730329314.9774027,1730329312.621244,5.0
-19418.480326948207,-187500.02235174447,32.49943643801647,-187500.02235174447,-187500.02235174447,-187500.02235174447,-187500.02235174447,-187500.02235174447,1730329314.9810076,1730329312.621244,5.0
-19416.20044901377,-187500.02235174447,-4.112720979776499,-187500.02235174447,-187500.02235174447,-187500.02235174447,-187500.02235174447,-187500.02235174447,1730329314.9849527,1730329312.621244,5.0
-19451.80677793107,-187500.02235174447,-63.00956761951061,-187500.02235174447,-187500.02235174447,-187500.02235174447,-187500.02235174447,-187500.02235174447,1730329314.9882846,1730329312.621244,5.0
-19469.64347000641,-187500.02235174447,-41.70835515360298,-187500.02235174447,-187500.02235174447,-187500.02235174447,-187500.02235174447,-187500.02235174447,1730329314.9919934,1730329312.621244,5.0
-19438.64160044689,-187500.02235174447,11.578203627849058,-187500.02235174447,-187500.02235174447,-187500.02235174447,-187500.02235174447,-187500.02235174447,1730329314.996385,1730329312.621244,5.0
-19397.20146622676,-187500.02235174447,6.951392525600497,-187500.02235174447,-187500.02235174447,-187500.02235174447,-187500.02235174447,-187500.02235174447,1730329314.9999747,1730329312.621244,5.0
-19456.165368099853,-187500.02235174447,-91.55274528893771,-187500.02235174447,-187500.02235174447,-187500.02235174447,-187500.02235174447,-187500.02235174447,1730329315.005109,1730329312.621244,5.0
-19463.832016448025,-187500.02235174447,-62.83075366386815,-187500.02235174447,-187500.02235174447,-187500.02235174447,-187500.02235174447,-187500.02235174447,1730329315.0088024,1730329312.621244,5.0
-19418.52503043712,-187500.02235174447,36.14277078423152,-187500.02235174447,-187500.02235174447,-187500.02235174447,-187500.02235174447,-187500.02235174447,1730329315.0130084,1730329312.621244,5.0
-19388.55134112255,-187500.02235174447,24.16223575618693,-187500.02235174447,-187500.02235174447,-187500.02235174447,-187500.02235174447,-187500.02235174447,1730329315.0158184,1730329312.621244,5.0
-19424.47059446223,-187500.02235174447,-49.82203839087944,-187500.02235174447,-187500.02235174447,-187500.02235174447,-187500.02235174447,-187500.02235174447,1730329315.0200238,1730329312.621244,5.0
-19466.6483362494,-187500.02235174447,-71.32441655688484,-187500.02235174447,-187500.02235174447,-187500.02235174447,-187500.02235174447,-187500.02235174447,1730329315.023844,1730329312.621244,5.0
-19440.42974000332,-187500.02235174447,-9.544194882416116,-187500.02235174447,-187500.02235174447,-187500.02235174447,-187500.02235174447,-187500.02235174447,1730329315.0281627,1730329312.621244,5.0
